#  E (eV)   dos(E)     Int dos(E) EFermi =    6.465 eV
  -5.876  0.0000E+00  0.0000E+00
  -5.866  0.5848E-03  0.1949E-05
  -5.856  0.2339E-02  0.1559E-04
  -5.846  0.5263E-02  0.5263E-04
  -5.836  0.9357E-02  0.1248E-03
  -5.826  0.1462E-01  0.2437E-03
  -5.816  0.2105E-01  0.4211E-03
  -5.806  0.2866E-01  0.6686E-03
  -5.796  0.3743E-01  0.9981E-03
  -5.786  0.4737E-01  0.1421E-02
  -5.776  0.1163E+00  0.2242E-02
  -5.766  0.1372E+00  0.3559E-02
  -5.756  0.9958E-01  0.4791E-02
  -5.746  0.8924E-01  0.5675E-02
  -5.736  0.9410E-01  0.6591E-02
  -5.726  0.9907E-01  0.7557E-02
  -5.716  0.1041E+00  0.8573E-02
  -5.706  0.1093E+00  0.9640E-02
  -5.696  0.1146E+00  0.1076E-01
  -5.686  0.1199E+00  0.1193E-01
  -5.676  0.1254E+00  0.1316E-01
  -5.666  0.1309E+00  0.1444E-01
  -5.656  0.1366E+00  0.1578E-01
  -5.646  0.1424E+00  0.1717E-01
  -5.636  0.1482E+00  0.1862E-01
  -5.626  0.1568E+00  0.2015E-01
  -5.616  0.1653E+00  0.2176E-01
  -5.606  0.1728E+00  0.2345E-01
  -5.596  0.1793E+00  0.2521E-01
  -5.586  0.1847E+00  0.2703E-01
  -5.576  0.1892E+00  0.2890E-01
  -5.566  0.1927E+00  0.3081E-01
  -5.556  0.1952E+00  0.3275E-01
  -5.546  0.1967E+00  0.3471E-01
  -5.536  0.1908E+00  0.3666E-01
  -5.526  0.1862E+00  0.3854E-01
  -5.516  0.1860E+00  0.4040E-01
  -5.506  0.1890E+00  0.4227E-01
  -5.496  0.1921E+00  0.4418E-01
  -5.486  0.1953E+00  0.4611E-01
  -5.476  0.1985E+00  0.4808E-01
  -5.466  0.2019E+00  0.5009E-01
  -5.456  0.2054E+00  0.5212E-01
  -5.446  0.2089E+00  0.5419E-01
  -5.436  0.2126E+00  0.5630E-01
  -5.426  0.2163E+00  0.5845E-01
  -5.416  0.2202E+00  0.6063E-01
  -5.406  0.2241E+00  0.6285E-01
  -5.396  0.2281E+00  0.6511E-01
  -5.386  0.2322E+00  0.6741E-01
  -5.376  0.2363E+00  0.6975E-01
  -5.366  0.2404E+00  0.7214E-01
  -5.356  0.2445E+00  0.7456E-01
  -5.346  0.2487E+00  0.7703E-01
  -5.336  0.2528E+00  0.7954E-01
  -5.326  0.2570E+00  0.8208E-01
  -5.316  0.2611E+00  0.8467E-01
  -5.306  0.2653E+00  0.8731E-01
  -5.296  0.2681E+00  0.8998E-01
  -5.286  0.2696E+00  0.9267E-01
  -5.276  0.2698E+00  0.9536E-01
  -5.266  0.2715E+00  0.9807E-01
  -5.256  0.2737E+00  0.1008E+00
  -5.246  0.2757E+00  0.1035E+00
  -5.236  0.2777E+00  0.1063E+00
  -5.226  0.2797E+00  0.1091E+00
  -5.216  0.2816E+00  0.1119E+00
  -5.206  0.2834E+00  0.1147E+00
  -5.196  0.2852E+00  0.1176E+00
  -5.186  0.2869E+00  0.1204E+00
  -5.176  0.2886E+00  0.1233E+00
  -5.166  0.2902E+00  0.1262E+00
  -5.156  0.2915E+00  0.1291E+00
  -5.146  0.2922E+00  0.1320E+00
  -5.136  0.2932E+00  0.1350E+00
  -5.126  0.2945E+00  0.1379E+00
  -5.116  0.2960E+00  0.1408E+00
  -5.106  0.2979E+00  0.1438E+00
  -5.096  0.2999E+00  0.1468E+00
  -5.086  0.3023E+00  0.1498E+00
  -5.076  0.3050E+00  0.1529E+00
  -5.066  0.3078E+00  0.1559E+00
  -5.056  0.3109E+00  0.1590E+00
  -5.046  0.3141E+00  0.1621E+00
  -5.036  0.3173E+00  0.1653E+00
  -5.026  0.3205E+00  0.1685E+00
  -5.016  0.3238E+00  0.1717E+00
  -5.006  0.3270E+00  0.1750E+00
  -4.996  0.3303E+00  0.1782E+00
  -4.986  0.3336E+00  0.1816E+00
  -4.976  0.3369E+00  0.1849E+00
  -4.966  0.3403E+00  0.1883E+00
  -4.956  0.3436E+00  0.1917E+00
  -4.946  0.3470E+00  0.1952E+00
  -4.936  0.3504E+00  0.1987E+00
  -4.926  0.3538E+00  0.2022E+00
  -4.916  0.3571E+00  0.2057E+00
  -4.906  0.3600E+00  0.2093E+00
  -4.896  0.3624E+00  0.2129E+00
  -4.886  0.3645E+00  0.2166E+00
  -4.876  0.3662E+00  0.2202E+00
  -4.866  0.3675E+00  0.2239E+00
  -4.856  0.3684E+00  0.2276E+00
  -4.846  0.3689E+00  0.2313E+00
  -4.836  0.3689E+00  0.2349E+00
  -4.826  0.3694E+00  0.2386E+00
  -4.816  0.3725E+00  0.2423E+00
  -4.806  0.3745E+00  0.2461E+00
  -4.796  0.3764E+00  0.2498E+00
  -4.786  0.3783E+00  0.2536E+00
  -4.776  0.3803E+00  0.2574E+00
  -4.766  0.3822E+00  0.2612E+00
  -4.756  0.3842E+00  0.2650E+00
  -4.746  0.3861E+00  0.2689E+00
  -4.736  0.3881E+00  0.2728E+00
  -4.726  0.3901E+00  0.2767E+00
  -4.716  0.3921E+00  0.2806E+00
  -4.706  0.3941E+00  0.2845E+00
  -4.696  0.3961E+00  0.2885E+00
  -4.686  0.3982E+00  0.2924E+00
  -4.676  0.4002E+00  0.2964E+00
  -4.666  0.4021E+00  0.3004E+00
  -4.656  0.4040E+00  0.3045E+00
  -4.646  0.4059E+00  0.3085E+00
  -4.636  0.4078E+00  0.3126E+00
  -4.626  0.4097E+00  0.3167E+00
  -4.616  0.4115E+00  0.3208E+00
  -4.606  0.4132E+00  0.3249E+00
  -4.596  0.4152E+00  0.3290E+00
  -4.586  0.4173E+00  0.3332E+00
  -4.576  0.4197E+00  0.3374E+00
  -4.566  0.4223E+00  0.3416E+00
  -4.556  0.4249E+00  0.3458E+00
  -4.546  0.4276E+00  0.3501E+00
  -4.536  0.4303E+00  0.3544E+00
  -4.526  0.4331E+00  0.3587E+00
  -4.516  0.4360E+00  0.3630E+00
  -4.506  0.4389E+00  0.3674E+00
  -4.496  0.4419E+00  0.3718E+00
  -4.486  0.4450E+00  0.3763E+00
  -4.476  0.4481E+00  0.3807E+00
  -4.466  0.4512E+00  0.3852E+00
  -4.456  0.4543E+00  0.3897E+00
  -4.446  0.4575E+00  0.3943E+00
  -4.436  0.4607E+00  0.3989E+00
  -4.426  0.4639E+00  0.4035E+00
  -4.416  0.4672E+00  0.4082E+00
  -4.406  0.4705E+00  0.4129E+00
  -4.396  0.4738E+00  0.4176E+00
  -4.386  0.4765E+00  0.4223E+00
  -4.376  0.4784E+00  0.4271E+00
  -4.366  0.4800E+00  0.4319E+00
  -4.356  0.4812E+00  0.4367E+00
  -4.346  0.4832E+00  0.4415E+00
  -4.336  0.4851E+00  0.4464E+00
  -4.326  0.4871E+00  0.4512E+00
  -4.316  0.4889E+00  0.4561E+00
  -4.306  0.4907E+00  0.4610E+00
  -4.296  0.4925E+00  0.4659E+00
  -4.286  0.4942E+00  0.4709E+00
  -4.276  0.4958E+00  0.4758E+00
  -4.266  0.4974E+00  0.4808E+00
  -4.256  0.4991E+00  0.4858E+00
  -4.246  0.5012E+00  0.4908E+00
  -4.236  0.5036E+00  0.4958E+00
  -4.226  0.5062E+00  0.5008E+00
  -4.216  0.5092E+00  0.5059E+00
  -4.206  0.5125E+00  0.5110E+00
  -4.196  0.5152E+00  0.5162E+00
  -4.186  0.5179E+00  0.5213E+00
  -4.176  0.5206E+00  0.5265E+00
  -4.166  0.5234E+00  0.5317E+00
  -4.156  0.5262E+00  0.5370E+00
  -4.146  0.5291E+00  0.5423E+00
  -4.136  0.5320E+00  0.5476E+00
  -4.126  0.5348E+00  0.5529E+00
  -4.116  0.5377E+00  0.5583E+00
  -4.106  0.5407E+00  0.5637E+00
  -4.096  0.5436E+00  0.5691E+00
  -4.086  0.5465E+00  0.5745E+00
  -4.076  0.5495E+00  0.5800E+00
  -4.066  0.5525E+00  0.5855E+00
  -4.056  0.5555E+00  0.5911E+00
  -4.046  0.5585E+00  0.5966E+00
  -4.036  0.5615E+00  0.6022E+00
  -4.026  0.5645E+00  0.6079E+00
  -4.016  0.5676E+00  0.6135E+00
  -4.006  0.5706E+00  0.6192E+00
  -3.996  0.5737E+00  0.6249E+00
  -3.986  0.5767E+00  0.6307E+00
  -3.976  0.5800E+00  0.6365E+00
  -3.966  0.5835E+00  0.6423E+00
  -3.956  0.5873E+00  0.6481E+00
  -3.946  0.5912E+00  0.6540E+00
  -3.936  0.5952E+00  0.6600E+00
  -3.926  0.5993E+00  0.6659E+00
  -3.916  0.6036E+00  0.6719E+00
  -3.906  0.6079E+00  0.6780E+00
  -3.896  0.6124E+00  0.6841E+00
  -3.886  0.6169E+00  0.6903E+00
  -3.876  0.6216E+00  0.6964E+00
  -3.866  0.6264E+00  0.7027E+00
  -3.856  0.6313E+00  0.7090E+00
  -3.846  0.6363E+00  0.7153E+00
  -3.836  0.6415E+00  0.7217E+00
  -3.826  0.6468E+00  0.7281E+00
  -3.816  0.6521E+00  0.7346E+00
  -3.806  0.6574E+00  0.7412E+00
  -3.796  0.6628E+00  0.7478E+00
  -3.786  0.6681E+00  0.7544E+00
  -3.776  0.6735E+00  0.7611E+00
  -3.766  0.6789E+00  0.7679E+00
  -3.756  0.6840E+00  0.7747E+00
  -3.746  0.6893E+00  0.7816E+00
  -3.736  0.6953E+00  0.7885E+00
  -3.726  0.7014E+00  0.7955E+00
  -3.716  0.7077E+00  0.8025E+00
  -3.706  0.7141E+00  0.8096E+00
  -3.696  0.7207E+00  0.8168E+00
  -3.686  0.7273E+00  0.8241E+00
  -3.676  0.7342E+00  0.8314E+00
  -3.666  0.7411E+00  0.8387E+00
  -3.656  0.7482E+00  0.8462E+00
  -3.646  0.7554E+00  0.8537E+00
  -3.636  0.7627E+00  0.8613E+00
  -3.626  0.7821E+00  0.8690E+00
  -3.616  0.8302E+00  0.8771E+00
  -3.606  0.8454E+00  0.8854E+00
  -3.596  0.8591E+00  0.8940E+00
  -3.586  0.8715E+00  0.9026E+00
  -3.576  0.8824E+00  0.9114E+00
  -3.566  0.8919E+00  0.9203E+00
  -3.556  0.9000E+00  0.9292E+00
  -3.546  0.9067E+00  0.9382E+00
  -3.536  0.9119E+00  0.9473E+00
  -3.526  0.9151E+00  0.9565E+00
  -3.516  0.9123E+00  0.9656E+00
  -3.506  0.9027E+00  0.9747E+00
  -3.496  0.8864E+00  0.9837E+00
  -3.486  0.8794E+00  0.9925E+00
  -3.476  0.8767E+00  0.1001E+01
  -3.466  0.8741E+00  0.1010E+01
  -3.456  0.8716E+00  0.1019E+01
  -3.446  0.8693E+00  0.1027E+01
  -3.436  0.8671E+00  0.1036E+01
  -3.426  0.8650E+00  0.1045E+01
  -3.416  0.8631E+00  0.1053E+01
  -3.406  0.8613E+00  0.1062E+01
  -3.396  0.8597E+00  0.1071E+01
  -3.386  0.8582E+00  0.1079E+01
  -3.376  0.8568E+00  0.1088E+01
  -3.366  0.8554E+00  0.1096E+01
  -3.356  0.8540E+00  0.1105E+01
  -3.346  0.8526E+00  0.1113E+01
  -3.336  0.8510E+00  0.1122E+01
  -3.326  0.8494E+00  0.1130E+01
  -3.316  0.8476E+00  0.1139E+01
  -3.306  0.8458E+00  0.1147E+01
  -3.296  0.8440E+00  0.1156E+01
  -3.286  0.8396E+00  0.1164E+01
  -3.276  0.8313E+00  0.1173E+01
  -3.266  0.8263E+00  0.1181E+01
  -3.256  0.8246E+00  0.1189E+01
  -3.246  0.8235E+00  0.1197E+01
  -3.236  0.8221E+00  0.1206E+01
  -3.226  0.8201E+00  0.1214E+01
  -3.216  0.8177E+00  0.1222E+01
  -3.206  0.8148E+00  0.1230E+01
  -3.196  0.8122E+00  0.1238E+01
  -3.186  0.8117E+00  0.1246E+01
  -3.176  0.8131E+00  0.1255E+01
  -3.166  0.8165E+00  0.1263E+01
  -3.156  0.8218E+00  0.1271E+01
  -3.146  0.8190E+00  0.1279E+01
  -3.136  0.8129E+00  0.1287E+01
  -3.126  0.8061E+00  0.1295E+01
  -3.116  0.7995E+00  0.1303E+01
  -3.106  0.7932E+00  0.1311E+01
  -3.096  0.7872E+00  0.1319E+01
  -3.086  0.7815E+00  0.1327E+01
  -3.076  0.7760E+00  0.1335E+01
  -3.066  0.7708E+00  0.1343E+01
  -3.056  0.7659E+00  0.1350E+01
  -3.046  0.7612E+00  0.1358E+01
  -3.036  0.7568E+00  0.1366E+01
  -3.026  0.7527E+00  0.1373E+01
  -3.016  0.7487E+00  0.1381E+01
  -3.006  0.7437E+00  0.1388E+01
  -2.996  0.7388E+00  0.1395E+01
  -2.986  0.7342E+00  0.1403E+01
  -2.976  0.7296E+00  0.1410E+01
  -2.966  0.7253E+00  0.1417E+01
  -2.956  0.7211E+00  0.1425E+01
  -2.946  0.7170E+00  0.1432E+01
  -2.936  0.7130E+00  0.1439E+01
  -2.926  0.7091E+00  0.1446E+01
  -2.916  0.7054E+00  0.1453E+01
  -2.906  0.7018E+00  0.1460E+01
  -2.896  0.6983E+00  0.1467E+01
  -2.886  0.6950E+00  0.1474E+01
  -2.876  0.6918E+00  0.1481E+01
  -2.866  0.6888E+00  0.1488E+01
  -2.856  0.6859E+00  0.1495E+01
  -2.846  0.6832E+00  0.1502E+01
  -2.836  0.6806E+00  0.1509E+01
  -2.826  0.6781E+00  0.1515E+01
  -2.816  0.6758E+00  0.1522E+01
  -2.806  0.6735E+00  0.1529E+01
  -2.796  0.6711E+00  0.1536E+01
  -2.786  0.6687E+00  0.1542E+01
  -2.776  0.6662E+00  0.1549E+01
  -2.766  0.6637E+00  0.1556E+01
  -2.756  0.6612E+00  0.1562E+01
  -2.746  0.6586E+00  0.1569E+01
  -2.736  0.6560E+00  0.1575E+01
  -2.726  0.6533E+00  0.1582E+01
  -2.716  0.6506E+00  0.1589E+01
  -2.706  0.6479E+00  0.1595E+01
  -2.696  0.6451E+00  0.1601E+01
  -2.686  0.6423E+00  0.1608E+01
  -2.676  0.6394E+00  0.1614E+01
  -2.666  0.6368E+00  0.1621E+01
  -2.656  0.6366E+00  0.1627E+01
  -2.646  0.6390E+00  0.1633E+01
  -2.636  0.6442E+00  0.1640E+01
  -2.626  0.6521E+00  0.1646E+01
  -2.616  0.6626E+00  0.1653E+01
  -2.606  0.6759E+00  0.1660E+01
  -2.596  0.6270E+00  0.1666E+01
  -2.586  0.6129E+00  0.1672E+01
  -2.576  0.6107E+00  0.1679E+01
  -2.566  0.6084E+00  0.1685E+01
  -2.556  0.6061E+00  0.1691E+01
  -2.546  0.6037E+00  0.1697E+01
  -2.536  0.6014E+00  0.1703E+01
  -2.526  0.5990E+00  0.1709E+01
  -2.516  0.5965E+00  0.1715E+01
  -2.506  0.5941E+00  0.1721E+01
  -2.496  0.5916E+00  0.1727E+01
  -2.486  0.5891E+00  0.1733E+01
  -2.476  0.5866E+00  0.1738E+01
  -2.466  0.5840E+00  0.1744E+01
  -2.456  0.5814E+00  0.1750E+01
  -2.446  0.5788E+00  0.1756E+01
  -2.436  0.5762E+00  0.1762E+01
  -2.426  0.5735E+00  0.1767E+01
  -2.416  0.5708E+00  0.1773E+01
  -2.406  0.5681E+00  0.1779E+01
  -2.396  0.5653E+00  0.1785E+01
  -2.386  0.5625E+00  0.1790E+01
  -2.376  0.5597E+00  0.1796E+01
  -2.366  0.5569E+00  0.1801E+01
  -2.356  0.5540E+00  0.1807E+01
  -2.346  0.5515E+00  0.1812E+01
  -2.336  0.5503E+00  0.1818E+01
  -2.326  0.5495E+00  0.1823E+01
  -2.316  0.5477E+00  0.1829E+01
  -2.306  0.5456E+00  0.1834E+01
  -2.296  0.5433E+00  0.1840E+01
  -2.286  0.5407E+00  0.1845E+01
  -2.276  0.5377E+00  0.1851E+01
  -2.266  0.5346E+00  0.1856E+01
  -2.256  0.5311E+00  0.1861E+01
  -2.246  0.5274E+00  0.1867E+01
  -2.236  0.5233E+00  0.1872E+01
  -2.226  0.5184E+00  0.1877E+01
  -2.216  0.5118E+00  0.1882E+01
  -2.206  0.5044E+00  0.1887E+01
  -2.196  0.4962E+00  0.1892E+01
  -2.186  0.4872E+00  0.1897E+01
  -2.176  0.4773E+00  0.1902E+01
  -2.166  0.4666E+00  0.1907E+01
  -2.156  0.4551E+00  0.1911E+01
  -2.146  0.4427E+00  0.1916E+01
  -2.136  0.4296E+00  0.1920E+01
  -2.126  0.4156E+00  0.1925E+01
  -2.116  0.4003E+00  0.1929E+01
  -2.106  0.3829E+00  0.1933E+01
  -2.096  0.3660E+00  0.1936E+01
  -2.086  0.3498E+00  0.1940E+01
  -2.076  0.3341E+00  0.1943E+01
  -2.066  0.3201E+00  0.1947E+01
  -2.056  0.3081E+00  0.1950E+01
  -2.046  0.2964E+00  0.1953E+01
  -2.036  0.2848E+00  0.1956E+01
  -2.026  0.2734E+00  0.1958E+01
  -2.016  0.2622E+00  0.1961E+01
  -2.006  0.2512E+00  0.1964E+01
  -1.996  0.2404E+00  0.1966E+01
  -1.986  0.2297E+00  0.1968E+01
  -1.976  0.2193E+00  0.1971E+01
  -1.966  0.2090E+00  0.1973E+01
  -1.956  0.1990E+00  0.1975E+01
  -1.946  0.1891E+00  0.1977E+01
  -1.936  0.1795E+00  0.1979E+01
  -1.926  0.1700E+00  0.1980E+01
  -1.916  0.1607E+00  0.1982E+01
  -1.906  0.1516E+00  0.1984E+01
  -1.896  0.1427E+00  0.1985E+01
  -1.886  0.1340E+00  0.1986E+01
  -1.876  0.1255E+00  0.1988E+01
  -1.866  0.1171E+00  0.1989E+01
  -1.856  0.1090E+00  0.1990E+01
  -1.846  0.1012E+00  0.1991E+01
  -1.836  0.9364E-01  0.1992E+01
  -1.826  0.8636E-01  0.1993E+01
  -1.816  0.7936E-01  0.1994E+01
  -1.806  0.7263E-01  0.1995E+01
  -1.796  0.6619E-01  0.1995E+01
  -1.786  0.6002E-01  0.1996E+01
  -1.776  0.5413E-01  0.1997E+01
  -1.766  0.4852E-01  0.1997E+01
  -1.756  0.4319E-01  0.1997E+01
  -1.746  0.3813E-01  0.1998E+01
  -1.736  0.3335E-01  0.1998E+01
  -1.726  0.2886E-01  0.1999E+01
  -1.716  0.2482E-01  0.1999E+01
  -1.706  0.2127E-01  0.1999E+01
  -1.696  0.1823E-01  0.1999E+01
  -1.686  0.1606E-01  0.1999E+01
  -1.676  0.1483E-01  0.2000E+01
  -1.666  0.1394E-01  0.2000E+01
  -1.656  0.1338E-01  0.2000E+01
  -1.646  0.1317E-01  0.2000E+01
  -1.636  0.1329E-01  0.2000E+01
  -1.626  0.1375E-01  0.2000E+01
  -1.616  0.1454E-01  0.2000E+01
  -1.606  0.1568E-01  0.2001E+01
  -1.596  0.1722E-01  0.2001E+01
  -1.586  0.1930E-01  0.2001E+01
  -1.576  0.2193E-01  0.2001E+01
  -1.566  0.2511E-01  0.2001E+01
  -1.556  0.2882E-01  0.2002E+01
  -1.546  0.3287E-01  0.2002E+01
  -1.536  0.3722E-01  0.2002E+01
  -1.526  0.4186E-01  0.2003E+01
  -1.516  0.4678E-01  0.2003E+01
  -1.506  0.5199E-01  0.2004E+01
  -1.496  0.5750E-01  0.2004E+01
  -1.486  0.6329E-01  0.2005E+01
  -1.476  0.6937E-01  0.2005E+01
  -1.466  0.7574E-01  0.2006E+01
  -1.456  0.8231E-01  0.2007E+01
  -1.446  0.8902E-01  0.2008E+01
  -1.436  0.9588E-01  0.2009E+01
  -1.426  0.1029E+00  0.2010E+01
  -1.416  0.1101E+00  0.2011E+01
  -1.406  0.1174E+00  0.2012E+01
  -1.396  0.1249E+00  0.2013E+01
  -1.386  0.1325E+00  0.2014E+01
  -1.376  0.1403E+00  0.2016E+01
  -1.366  0.1482E+00  0.2017E+01
  -1.356  0.1562E+00  0.2019E+01
  -1.346  0.1645E+00  0.2020E+01
  -1.336  0.1729E+00  0.2022E+01
  -1.326  0.1814E+00  0.2024E+01
  -1.316  0.1901E+00  0.2026E+01
  -1.306  0.1989E+00  0.2028E+01
  -1.296  0.2079E+00  0.2030E+01
  -1.286  0.2170E+00  0.2032E+01
  -1.276  0.2263E+00  0.2034E+01
  -1.266  0.2357E+00  0.2036E+01
  -1.256  0.2453E+00  0.2039E+01
  -1.246  0.2550E+00  0.2041E+01
  -1.236  0.2649E+00  0.2044E+01
  -1.226  0.2750E+00  0.2046E+01
  -1.216  0.2852E+00  0.2049E+01
  -1.206  0.2955E+00  0.2052E+01
  -1.196  0.3060E+00  0.2055E+01
  -1.186  0.3166E+00  0.2058E+01
  -1.176  0.3274E+00  0.2062E+01
  -1.166  0.3394E+00  0.2065E+01
  -1.156  0.3555E+00  0.2068E+01
  -1.146  0.3715E+00  0.2072E+01
  -1.136  0.3876E+00  0.2076E+01
  -1.126  0.4035E+00  0.2080E+01
  -1.116  0.4195E+00  0.2084E+01
  -1.106  0.4354E+00  0.2088E+01
  -1.096  0.4513E+00  0.2093E+01
  -1.086  0.4671E+00  0.2097E+01
  -1.076  0.4829E+00  0.2102E+01
  -1.066  0.4986E+00  0.2107E+01
  -1.056  0.5137E+00  0.2112E+01
  -1.046  0.5244E+00  0.2117E+01
  -1.036  0.5338E+00  0.2122E+01
  -1.026  0.5429E+00  0.2128E+01
  -1.016  0.5517E+00  0.2133E+01
  -1.006  0.5603E+00  0.2139E+01
  -0.996  0.5685E+00  0.2144E+01
  -0.986  0.5765E+00  0.2150E+01
  -0.976  0.5841E+00  0.2156E+01
  -0.966  0.5909E+00  0.2162E+01
  -0.956  0.5974E+00  0.2168E+01
  -0.946  0.6042E+00  0.2174E+01
  -0.936  0.6113E+00  0.2180E+01
  -0.926  0.6187E+00  0.2186E+01
  -0.916  0.6272E+00  0.2192E+01
  -0.906  0.6378E+00  0.2199E+01
  -0.896  0.6506E+00  0.2205E+01
  -0.886  0.6656E+00  0.2212E+01
  -0.876  0.6828E+00  0.2218E+01
  -0.866  0.7021E+00  0.2225E+01
  -0.856  0.7236E+00  0.2232E+01
  -0.846  0.7473E+00  0.2240E+01
  -0.836  0.7732E+00  0.2247E+01
  -0.826  0.8008E+00  0.2255E+01
  -0.816  0.8889E+00  0.2263E+01
  -0.806  0.8874E+00  0.2273E+01
  -0.796  0.9322E+00  0.2282E+01
  -0.786  0.9833E+00  0.2291E+01
  -0.776  0.1041E+01  0.2301E+01
  -0.766  0.1104E+01  0.2312E+01
  -0.756  0.1176E+01  0.2323E+01
  -0.746  0.1258E+01  0.2336E+01
  -0.736  0.1350E+01  0.2349E+01
  -0.726  0.1494E+01  0.2363E+01
  -0.716  0.1573E+01  0.2378E+01
  -0.706  0.1571E+01  0.2394E+01
  -0.696  0.1554E+01  0.2409E+01
  -0.686  0.1539E+01  0.2425E+01
  -0.676  0.1519E+01  0.2440E+01
  -0.666  0.1496E+01  0.2455E+01
  -0.656  0.1487E+01  0.2470E+01
  -0.646  0.1475E+01  0.2485E+01
  -0.636  0.1457E+01  0.2500E+01
  -0.626  0.1442E+01  0.2514E+01
  -0.616  0.1425E+01  0.2529E+01
  -0.606  0.1408E+01  0.2543E+01
  -0.596  0.1389E+01  0.2557E+01
  -0.586  0.1370E+01  0.2570E+01
  -0.576  0.1349E+01  0.2584E+01
  -0.566  0.1327E+01  0.2597E+01
  -0.556  0.1304E+01  0.2611E+01
  -0.546  0.1280E+01  0.2624E+01
  -0.536  0.1256E+01  0.2636E+01
  -0.526  0.1231E+01  0.2649E+01
  -0.516  0.1206E+01  0.2661E+01
  -0.506  0.1181E+01  0.2673E+01
  -0.496  0.1156E+01  0.2684E+01
  -0.486  0.1131E+01  0.2696E+01
  -0.476  0.1105E+01  0.2707E+01
  -0.466  0.1078E+01  0.2718E+01
  -0.456  0.1053E+01  0.2729E+01
  -0.446  0.1028E+01  0.2739E+01
  -0.436  0.1005E+01  0.2749E+01
  -0.426  0.9826E+00  0.2759E+01
  -0.416  0.9613E+00  0.2769E+01
  -0.406  0.9411E+00  0.2778E+01
  -0.396  0.9219E+00  0.2788E+01
  -0.386  0.9037E+00  0.2797E+01
  -0.376  0.8865E+00  0.2806E+01
  -0.366  0.8704E+00  0.2815E+01
  -0.356  0.8553E+00  0.2823E+01
  -0.346  0.8412E+00  0.2832E+01
  -0.336  0.8281E+00  0.2840E+01
  -0.326  0.8163E+00  0.2848E+01
  -0.316  0.8054E+00  0.2856E+01
  -0.306  0.7954E+00  0.2864E+01
  -0.296  0.7862E+00  0.2872E+01
  -0.286  0.7771E+00  0.2880E+01
  -0.276  0.7683E+00  0.2888E+01
  -0.266  0.7596E+00  0.2895E+01
  -0.256  0.7510E+00  0.2903E+01
  -0.246  0.7426E+00  0.2910E+01
  -0.236  0.7343E+00  0.2918E+01
  -0.226  0.7264E+00  0.2925E+01
  -0.216  0.7192E+00  0.2932E+01
  -0.206  0.7122E+00  0.2940E+01
  -0.196  0.7051E+00  0.2947E+01
  -0.186  0.6981E+00  0.2954E+01
  -0.176  0.6912E+00  0.2961E+01
  -0.166  0.6843E+00  0.2967E+01
  -0.156  0.6775E+00  0.2974E+01
  -0.146  0.6707E+00  0.2981E+01
  -0.136  0.6640E+00  0.2988E+01
  -0.126  0.6572E+00  0.2994E+01
  -0.116  0.6506E+00  0.3001E+01
  -0.106  0.6441E+00  0.3007E+01
  -0.096  0.6377E+00  0.3014E+01
  -0.086  0.6314E+00  0.3020E+01
  -0.076  0.6253E+00  0.3026E+01
  -0.066  0.6194E+00  0.3033E+01
  -0.056  0.6135E+00  0.3039E+01
  -0.046  0.6078E+00  0.3045E+01
  -0.036  0.6023E+00  0.3051E+01
  -0.026  0.5969E+00  0.3057E+01
  -0.016  0.5916E+00  0.3063E+01
  -0.006  0.5864E+00  0.3069E+01
   0.004  0.5814E+00  0.3075E+01
   0.014  0.5765E+00  0.3080E+01
   0.024  0.5717E+00  0.3086E+01
   0.034  0.5670E+00  0.3092E+01
   0.044  0.5625E+00  0.3097E+01
   0.054  0.5580E+00  0.3103E+01
   0.064  0.5532E+00  0.3109E+01
   0.074  0.5494E+00  0.3114E+01
   0.084  0.5456E+00  0.3120E+01
   0.094  0.5419E+00  0.3125E+01
   0.104  0.5382E+00  0.3130E+01
   0.114  0.5345E+00  0.3136E+01
   0.124  0.5308E+00  0.3141E+01
   0.134  0.5272E+00  0.3146E+01
   0.144  0.5236E+00  0.3152E+01
   0.154  0.5201E+00  0.3157E+01
   0.164  0.5166E+00  0.3162E+01
   0.174  0.5131E+00  0.3167E+01
   0.184  0.5096E+00  0.3172E+01
   0.194  0.5061E+00  0.3177E+01
   0.204  0.5027E+00  0.3182E+01
   0.214  0.4993E+00  0.3187E+01
   0.224  0.4960E+00  0.3192E+01
   0.234  0.4927E+00  0.3197E+01
   0.244  0.4894E+00  0.3202E+01
   0.254  0.4861E+00  0.3207E+01
   0.264  0.4829E+00  0.3212E+01
   0.274  0.4796E+00  0.3217E+01
   0.284  0.4765E+00  0.3222E+01
   0.294  0.4733E+00  0.3226E+01
   0.304  0.4702E+00  0.3231E+01
   0.314  0.4671E+00  0.3236E+01
   0.324  0.4640E+00  0.3240E+01
   0.334  0.4609E+00  0.3245E+01
   0.344  0.4579E+00  0.3250E+01
   0.354  0.4549E+00  0.3254E+01
   0.364  0.4519E+00  0.3259E+01
   0.374  0.4490E+00  0.3263E+01
   0.384  0.4460E+00  0.3268E+01
   0.394  0.4431E+00  0.3272E+01
   0.404  0.4400E+00  0.3277E+01
   0.414  0.4388E+00  0.3281E+01
   0.424  0.4375E+00  0.3285E+01
   0.434  0.4357E+00  0.3290E+01
   0.444  0.4334E+00  0.3294E+01
   0.454  0.4310E+00  0.3298E+01
   0.464  0.4286E+00  0.3303E+01
   0.474  0.4262E+00  0.3307E+01
   0.484  0.4238E+00  0.3311E+01
   0.494  0.4213E+00  0.3315E+01
   0.504  0.4188E+00  0.3320E+01
   0.514  0.4163E+00  0.3324E+01
   0.524  0.4138E+00  0.3328E+01
   0.534  0.4112E+00  0.3332E+01
   0.544  0.4086E+00  0.3336E+01
   0.554  0.4061E+00  0.3340E+01
   0.564  0.4035E+00  0.3344E+01
   0.574  0.4008E+00  0.3348E+01
   0.584  0.3982E+00  0.3352E+01
   0.594  0.3955E+00  0.3356E+01
   0.604  0.3929E+00  0.3360E+01
   0.614  0.3902E+00  0.3364E+01
   0.624  0.3877E+00  0.3368E+01
   0.634  0.3851E+00  0.3372E+01
   0.644  0.3826E+00  0.3376E+01
   0.654  0.3801E+00  0.3380E+01
   0.664  0.3777E+00  0.3383E+01
   0.674  0.3753E+00  0.3387E+01
   0.684  0.3729E+00  0.3391E+01
   0.694  0.3706E+00  0.3395E+01
   0.704  0.3682E+00  0.3398E+01
   0.714  0.3659E+00  0.3402E+01
   0.724  0.3637E+00  0.3406E+01
   0.734  0.3615E+00  0.3409E+01
   0.744  0.3593E+00  0.3413E+01
   0.754  0.3571E+00  0.3416E+01
   0.764  0.3550E+00  0.3420E+01
   0.774  0.3529E+00  0.3423E+01
   0.784  0.3508E+00  0.3427E+01
   0.794  0.3487E+00  0.3430E+01
   0.804  0.3467E+00  0.3434E+01
   0.814  0.3447E+00  0.3437E+01
   0.824  0.3427E+00  0.3441E+01
   0.834  0.3407E+00  0.3444E+01
   0.844  0.3387E+00  0.3448E+01
   0.854  0.3368E+00  0.3451E+01
   0.864  0.3348E+00  0.3454E+01
   0.874  0.3329E+00  0.3458E+01
   0.884  0.3310E+00  0.3461E+01
   0.894  0.3291E+00  0.3464E+01
   0.904  0.3271E+00  0.3468E+01
   0.914  0.3252E+00  0.3471E+01
   0.924  0.3233E+00  0.3474E+01
   0.934  0.3215E+00  0.3477E+01
   0.944  0.3196E+00  0.3481E+01
   0.954  0.3178E+00  0.3484E+01
   0.964  0.3160E+00  0.3487E+01
   0.974  0.3142E+00  0.3490E+01
   0.984  0.3125E+00  0.3493E+01
   0.994  0.3108E+00  0.3496E+01
   1.004  0.3091E+00  0.3499E+01
   1.014  0.3074E+00  0.3502E+01
   1.024  0.3057E+00  0.3506E+01
   1.034  0.3041E+00  0.3509E+01
   1.044  0.3025E+00  0.3512E+01
   1.054  0.3010E+00  0.3515E+01
   1.064  0.2994E+00  0.3518E+01
   1.074  0.2979E+00  0.3521E+01
   1.084  0.2964E+00  0.3524E+01
   1.094  0.2949E+00  0.3527E+01
   1.104  0.2935E+00  0.3530E+01
   1.114  0.2922E+00  0.3532E+01
   1.124  0.2909E+00  0.3535E+01
   1.134  0.2896E+00  0.3538E+01
   1.144  0.2883E+00  0.3541E+01
   1.154  0.2870E+00  0.3544E+01
   1.164  0.2856E+00  0.3547E+01
   1.174  0.2843E+00  0.3550E+01
   1.184  0.2830E+00  0.3553E+01
   1.194  0.2817E+00  0.3555E+01
   1.204  0.2803E+00  0.3558E+01
   1.214  0.2792E+00  0.3561E+01
   1.224  0.2782E+00  0.3564E+01
   1.234  0.2772E+00  0.3567E+01
   1.244  0.2762E+00  0.3569E+01
   1.254  0.2751E+00  0.3572E+01
   1.264  0.2740E+00  0.3575E+01
   1.274  0.2729E+00  0.3578E+01
   1.284  0.2717E+00  0.3580E+01
   1.294  0.2705E+00  0.3583E+01
   1.304  0.2693E+00  0.3586E+01
   1.314  0.2680E+00  0.3588E+01
   1.324  0.2667E+00  0.3591E+01
   1.334  0.2654E+00  0.3594E+01
   1.344  0.2640E+00  0.3596E+01
   1.354  0.2626E+00  0.3599E+01
   1.364  0.2612E+00  0.3602E+01
   1.374  0.2597E+00  0.3604E+01
   1.384  0.2582E+00  0.3607E+01
   1.394  0.2565E+00  0.3609E+01
   1.404  0.2548E+00  0.3612E+01
   1.414  0.2531E+00  0.3615E+01
   1.424  0.2514E+00  0.3617E+01
   1.434  0.2498E+00  0.3620E+01
   1.444  0.2481E+00  0.3622E+01
   1.454  0.2465E+00  0.3624E+01
   1.464  0.2449E+00  0.3627E+01
   1.474  0.2432E+00  0.3629E+01
   1.484  0.2417E+00  0.3632E+01
   1.494  0.2401E+00  0.3634E+01
   1.504  0.2385E+00  0.3637E+01
   1.514  0.2370E+00  0.3639E+01
   1.524  0.2355E+00  0.3641E+01
   1.534  0.2340E+00  0.3644E+01
   1.544  0.2325E+00  0.3646E+01
   1.554  0.2310E+00  0.3648E+01
   1.564  0.2296E+00  0.3651E+01
   1.574  0.2281E+00  0.3653E+01
   1.584  0.2267E+00  0.3655E+01
   1.594  0.2253E+00  0.3657E+01
   1.604  0.2239E+00  0.3660E+01
   1.614  0.2226E+00  0.3662E+01
   1.624  0.2226E+00  0.3664E+01
   1.634  0.2239E+00  0.3666E+01
   1.644  0.2266E+00  0.3669E+01
   1.654  0.2305E+00  0.3671E+01
   1.664  0.2363E+00  0.3673E+01
   1.674  0.2435E+00  0.3676E+01
   1.684  0.2521E+00  0.3678E+01
   1.694  0.2621E+00  0.3681E+01
   1.704  0.2735E+00  0.3683E+01
   1.714  0.2863E+00  0.3686E+01
   1.724  0.3006E+00  0.3689E+01
   1.734  0.3162E+00  0.3692E+01
   1.744  0.3332E+00  0.3695E+01
   1.754  0.3516E+00  0.3699E+01
   1.764  0.3714E+00  0.3702E+01
   1.774  0.4062E+00  0.3706E+01
   1.784  0.5427E+00  0.3711E+01
   1.794  0.6340E+00  0.3717E+01
   1.804  0.6968E+00  0.3724E+01
   1.814  0.7364E+00  0.3731E+01
   1.824  0.7878E+00  0.3738E+01
   1.834  0.8384E+00  0.3747E+01
   1.844  0.8863E+00  0.3755E+01
   1.854  0.9315E+00  0.3764E+01
   1.864  0.9739E+00  0.3774E+01
   1.874  0.1014E+01  0.3784E+01
   1.884  0.1046E+01  0.3794E+01
   1.894  0.1076E+01  0.3805E+01
   1.904  0.1106E+01  0.3816E+01
   1.914  0.1134E+01  0.3827E+01
   1.924  0.1162E+01  0.3838E+01
   1.934  0.1189E+01  0.3850E+01
   1.944  0.1213E+01  0.3862E+01
   1.954  0.1222E+01  0.3874E+01
   1.964  0.1231E+01  0.3887E+01
   1.974  0.1237E+01  0.3899E+01
   1.984  0.1242E+01  0.3911E+01
   1.994  0.1245E+01  0.3924E+01
   2.004  0.1247E+01  0.3936E+01
   2.014  0.1247E+01  0.3949E+01
   2.024  0.1242E+01  0.3961E+01
   2.034  0.1235E+01  0.3973E+01
   2.044  0.1227E+01  0.3986E+01
   2.054  0.1219E+01  0.3998E+01
   2.064  0.1210E+01  0.4010E+01
   2.074  0.1200E+01  0.4022E+01
   2.084  0.1190E+01  0.4034E+01
   2.094  0.1179E+01  0.4046E+01
   2.104  0.1170E+01  0.4058E+01
   2.114  0.1162E+01  0.4069E+01
   2.124  0.1154E+01  0.4081E+01
   2.134  0.1148E+01  0.4093E+01
   2.144  0.1143E+01  0.4104E+01
   2.154  0.1138E+01  0.4115E+01
   2.164  0.1134E+01  0.4127E+01
   2.174  0.1131E+01  0.4138E+01
   2.184  0.1128E+01  0.4149E+01
   2.194  0.1126E+01  0.4161E+01
   2.204  0.1123E+01  0.4172E+01
   2.214  0.1121E+01  0.4183E+01
   2.224  0.1119E+01  0.4194E+01
   2.234  0.1117E+01  0.4205E+01
   2.244  0.1115E+01  0.4217E+01
   2.254  0.1114E+01  0.4228E+01
   2.264  0.1112E+01  0.4239E+01
   2.274  0.1128E+01  0.4250E+01
   2.284  0.1137E+01  0.4261E+01
   2.294  0.1120E+01  0.4273E+01
   2.304  0.1105E+01  0.4284E+01
   2.314  0.1091E+01  0.4295E+01
   2.324  0.1079E+01  0.4306E+01
   2.334  0.1068E+01  0.4316E+01
   2.344  0.1059E+01  0.4327E+01
   2.354  0.1051E+01  0.4338E+01
   2.364  0.1045E+01  0.4348E+01
   2.374  0.1040E+01  0.4359E+01
   2.384  0.1037E+01  0.4369E+01
   2.394  0.1035E+01  0.4379E+01
   2.404  0.1033E+01  0.4390E+01
   2.414  0.1032E+01  0.4400E+01
   2.424  0.1030E+01  0.4410E+01
   2.434  0.1029E+01  0.4421E+01
   2.444  0.1028E+01  0.4431E+01
   2.454  0.1027E+01  0.4441E+01
   2.464  0.1031E+01  0.4451E+01
   2.474  0.1039E+01  0.4462E+01
   2.484  0.1042E+01  0.4472E+01
   2.494  0.1041E+01  0.4483E+01
   2.504  0.1035E+01  0.4493E+01
   2.514  0.1024E+01  0.4503E+01
   2.524  0.1010E+01  0.4513E+01
   2.534  0.1007E+01  0.4523E+01
   2.544  0.1006E+01  0.4534E+01
   2.554  0.1006E+01  0.4544E+01
   2.564  0.1007E+01  0.4554E+01
   2.574  0.1009E+01  0.4564E+01
   2.584  0.1012E+01  0.4574E+01
   2.594  0.1014E+01  0.4584E+01
   2.604  0.1016E+01  0.4594E+01
   2.614  0.1018E+01  0.4604E+01
   2.624  0.1019E+01  0.4614E+01
   2.634  0.1021E+01  0.4625E+01
   2.644  0.1022E+01  0.4635E+01
   2.654  0.1024E+01  0.4645E+01
   2.664  0.1027E+01  0.4655E+01
   2.674  0.1030E+01  0.4666E+01
   2.684  0.1033E+01  0.4676E+01
   2.694  0.1036E+01  0.4686E+01
   2.704  0.1040E+01  0.4697E+01
   2.714  0.1044E+01  0.4707E+01
   2.724  0.1048E+01  0.4718E+01
   2.734  0.1052E+01  0.4728E+01
   2.744  0.1056E+01  0.4739E+01
   2.754  0.1060E+01  0.4749E+01
   2.764  0.1064E+01  0.4760E+01
   2.774  0.1069E+01  0.4770E+01
   2.784  0.1073E+01  0.4781E+01
   2.794  0.1078E+01  0.4792E+01
   2.804  0.1083E+01  0.4803E+01
   2.814  0.1088E+01  0.4814E+01
   2.824  0.1094E+01  0.4825E+01
   2.834  0.1100E+01  0.4835E+01
   2.844  0.1105E+01  0.4847E+01
   2.854  0.1111E+01  0.4858E+01
   2.864  0.1117E+01  0.4869E+01
   2.874  0.1331E+01  0.4881E+01
   2.884  0.1204E+01  0.4894E+01
   2.894  0.1204E+01  0.4906E+01
   2.904  0.1202E+01  0.4918E+01
   2.914  0.1197E+01  0.4930E+01
   2.924  0.1199E+01  0.4942E+01
   2.934  0.1205E+01  0.4954E+01
   2.944  0.1211E+01  0.4966E+01
   2.954  0.1217E+01  0.4978E+01
   2.964  0.1224E+01  0.4990E+01
   2.974  0.1232E+01  0.5003E+01
   2.984  0.1241E+01  0.5015E+01
   2.994  0.1250E+01  0.5027E+01
   3.004  0.1260E+01  0.5040E+01
   3.014  0.1270E+01  0.5053E+01
   3.024  0.1279E+01  0.5065E+01
   3.034  0.1289E+01  0.5078E+01
   3.044  0.1299E+01  0.5091E+01
   3.054  0.1309E+01  0.5104E+01
   3.064  0.1319E+01  0.5117E+01
   3.074  0.1330E+01  0.5131E+01
   3.084  0.1345E+01  0.5144E+01
   3.094  0.1361E+01  0.5157E+01
   3.104  0.1379E+01  0.5171E+01
   3.114  0.1398E+01  0.5185E+01
   3.124  0.1415E+01  0.5199E+01
   3.134  0.1432E+01  0.5213E+01
   3.144  0.1458E+01  0.5228E+01
   3.154  0.1492E+01  0.5243E+01
   3.164  0.1521E+01  0.5258E+01
   3.174  0.1546E+01  0.5273E+01
   3.184  0.1553E+01  0.5288E+01
   3.194  0.1547E+01  0.5304E+01
   3.204  0.1532E+01  0.5319E+01
   3.214  0.1541E+01  0.5335E+01
   3.224  0.1549E+01  0.5350E+01
   3.234  0.1555E+01  0.5366E+01
   3.244  0.1558E+01  0.5381E+01
   3.254  0.1561E+01  0.5397E+01
   3.264  0.1561E+01  0.5412E+01
   3.274  0.1550E+01  0.5428E+01
   3.284  0.1526E+01  0.5443E+01
   3.294  0.1510E+01  0.5459E+01
   3.304  0.1502E+01  0.5474E+01
   3.314  0.1499E+01  0.5489E+01
   3.324  0.1497E+01  0.5504E+01
   3.334  0.1495E+01  0.5519E+01
   3.344  0.1494E+01  0.5534E+01
   3.354  0.1494E+01  0.5548E+01
   3.364  0.1495E+01  0.5563E+01
   3.374  0.1496E+01  0.5578E+01
   3.384  0.1498E+01  0.5593E+01
   3.394  0.1501E+01  0.5608E+01
   3.404  0.1504E+01  0.5623E+01
   3.414  0.1507E+01  0.5638E+01
   3.424  0.1561E+01  0.5654E+01
   3.434  0.1557E+01  0.5669E+01
   3.444  0.1553E+01  0.5685E+01
   3.454  0.1548E+01  0.5700E+01
   3.464  0.1541E+01  0.5716E+01
   3.474  0.1533E+01  0.5731E+01
   3.484  0.1524E+01  0.5746E+01
   3.494  0.1520E+01  0.5762E+01
   3.504  0.1511E+01  0.5777E+01
   3.514  0.1503E+01  0.5792E+01
   3.524  0.1495E+01  0.5807E+01
   3.534  0.1488E+01  0.5822E+01
   3.544  0.1482E+01  0.5837E+01
   3.554  0.1475E+01  0.5851E+01
   3.564  0.1470E+01  0.5866E+01
   3.574  0.1465E+01  0.5881E+01
   3.584  0.1460E+01  0.5895E+01
   3.594  0.1456E+01  0.5910E+01
   3.604  0.1452E+01  0.5925E+01
   3.614  0.1446E+01  0.5939E+01
   3.624  0.1434E+01  0.5953E+01
   3.634  0.1431E+01  0.5968E+01
   3.644  0.1431E+01  0.5982E+01
   3.654  0.1434E+01  0.5996E+01
   3.664  0.1439E+01  0.6011E+01
   3.674  0.1446E+01  0.6025E+01
   3.684  0.1455E+01  0.6040E+01
   3.694  0.1468E+01  0.6054E+01
   3.704  0.1473E+01  0.6069E+01
   3.714  0.1435E+01  0.6084E+01
   3.724  0.1414E+01  0.6098E+01
   3.734  0.1409E+01  0.6112E+01
   3.744  0.1405E+01  0.6126E+01
   3.754  0.1401E+01  0.6140E+01
   3.764  0.1396E+01  0.6154E+01
   3.774  0.1392E+01  0.6168E+01
   3.784  0.1387E+01  0.6182E+01
   3.794  0.1383E+01  0.6196E+01
   3.804  0.1378E+01  0.6210E+01
   3.814  0.1374E+01  0.6223E+01
   3.824  0.1370E+01  0.6237E+01
   3.834  0.1366E+01  0.6251E+01
   3.844  0.1363E+01  0.6264E+01
   3.854  0.1360E+01  0.6278E+01
   3.864  0.1359E+01  0.6292E+01
   3.874  0.1360E+01  0.6305E+01
   3.884  0.1362E+01  0.6319E+01
   3.894  0.1367E+01  0.6332E+01
   3.904  0.1373E+01  0.6346E+01
   3.914  0.1393E+01  0.6360E+01
   3.924  0.1380E+01  0.6374E+01
   3.934  0.1374E+01  0.6388E+01
   3.944  0.1368E+01  0.6401E+01
   3.954  0.1362E+01  0.6415E+01
   3.964  0.1357E+01  0.6429E+01
   3.974  0.1353E+01  0.6442E+01
   3.984  0.1349E+01  0.6456E+01
   3.994  0.1345E+01  0.6469E+01
   4.004  0.1342E+01  0.6483E+01
   4.014  0.1339E+01  0.6496E+01
   4.024  0.1337E+01  0.6509E+01
   4.034  0.1335E+01  0.6523E+01
   4.044  0.1333E+01  0.6536E+01
   4.054  0.1332E+01  0.6549E+01
   4.064  0.1331E+01  0.6563E+01
   4.074  0.1330E+01  0.6576E+01
   4.084  0.1329E+01  0.6589E+01
   4.094  0.1327E+01  0.6603E+01
   4.104  0.1325E+01  0.6616E+01
   4.114  0.1324E+01  0.6629E+01
   4.124  0.1322E+01  0.6642E+01
   4.134  0.1321E+01  0.6655E+01
   4.144  0.1318E+01  0.6669E+01
   4.154  0.1315E+01  0.6682E+01
   4.164  0.1312E+01  0.6695E+01
   4.174  0.1309E+01  0.6708E+01
   4.184  0.1335E+01  0.6721E+01
   4.194  0.1358E+01  0.6735E+01
   4.204  0.1371E+01  0.6748E+01
   4.214  0.1372E+01  0.6762E+01
   4.224  0.1369E+01  0.6776E+01
   4.234  0.1363E+01  0.6790E+01
   4.244  0.1352E+01  0.6803E+01
   4.254  0.1338E+01  0.6817E+01
   4.264  0.1321E+01  0.6830E+01
   4.274  0.1303E+01  0.6843E+01
   4.284  0.1299E+01  0.6856E+01
   4.294  0.1295E+01  0.6869E+01
   4.304  0.1291E+01  0.6882E+01
   4.314  0.1287E+01  0.6895E+01
   4.324  0.1283E+01  0.6908E+01
   4.334  0.1280E+01  0.6920E+01
   4.344  0.1276E+01  0.6933E+01
   4.354  0.1273E+01  0.6946E+01
   4.364  0.1270E+01  0.6959E+01
   4.374  0.1267E+01  0.6971E+01
   4.384  0.1264E+01  0.6984E+01
   4.394  0.1262E+01  0.6997E+01
   4.404  0.1260E+01  0.7009E+01
   4.414  0.1276E+01  0.7022E+01
   4.424  0.1294E+01  0.7035E+01
   4.434  0.1309E+01  0.7048E+01
   4.444  0.1318E+01  0.7061E+01
   4.454  0.1319E+01  0.7074E+01
   4.464  0.1312E+01  0.7087E+01
   4.474  0.1303E+01  0.7100E+01
   4.484  0.1294E+01  0.7113E+01
   4.494  0.1286E+01  0.7126E+01
   4.504  0.1275E+01  0.7139E+01
   4.514  0.1263E+01  0.7152E+01
   4.524  0.1254E+01  0.7164E+01
   4.534  0.1249E+01  0.7177E+01
   4.544  0.1244E+01  0.7189E+01
   4.554  0.1239E+01  0.7202E+01
   4.564  0.1234E+01  0.7214E+01
   4.574  0.1228E+01  0.7226E+01
   4.584  0.1223E+01  0.7239E+01
   4.594  0.1217E+01  0.7251E+01
   4.604  0.1211E+01  0.7263E+01
   4.614  0.1205E+01  0.7275E+01
   4.624  0.1199E+01  0.7287E+01
   4.634  0.1192E+01  0.7299E+01
   4.644  0.1186E+01  0.7311E+01
   4.654  0.1185E+01  0.7323E+01
   4.664  0.1191E+01  0.7335E+01
   4.674  0.1199E+01  0.7347E+01
   4.684  0.1203E+01  0.7359E+01
   4.694  0.1199E+01  0.7371E+01
   4.704  0.1194E+01  0.7383E+01
   4.714  0.1187E+01  0.7395E+01
   4.724  0.1179E+01  0.7406E+01
   4.734  0.1169E+01  0.7418E+01
   4.744  0.1158E+01  0.7430E+01
   4.754  0.1151E+01  0.7441E+01
   4.764  0.1144E+01  0.7453E+01
   4.774  0.1136E+01  0.7464E+01
   4.784  0.1120E+01  0.7475E+01
   4.794  0.1099E+01  0.7487E+01
   4.804  0.1076E+01  0.7497E+01
   4.814  0.1053E+01  0.7508E+01
   4.824  0.1028E+01  0.7518E+01
   4.834  0.9992E+00  0.7529E+01
   4.844  0.9702E+00  0.7538E+01
   4.854  0.9407E+00  0.7548E+01
   4.864  0.9115E+00  0.7557E+01
   4.874  0.8852E+00  0.7566E+01
   4.884  0.8618E+00  0.7575E+01
   4.894  0.8415E+00  0.7583E+01
   4.904  0.8242E+00  0.7592E+01
   4.914  0.8093E+00  0.7600E+01
   4.924  0.7949E+00  0.7608E+01
   4.934  0.7807E+00  0.7616E+01
   4.944  0.7668E+00  0.7624E+01
   4.954  0.7532E+00  0.7631E+01
   4.964  0.7400E+00  0.7639E+01
   4.974  0.7271E+00  0.7646E+01
   4.984  0.7145E+00  0.7653E+01
   4.994  0.7021E+00  0.7660E+01
   5.004  0.6901E+00  0.7667E+01
   5.014  0.6784E+00  0.7674E+01
   5.024  0.6670E+00  0.7681E+01
   5.034  0.6559E+00  0.7687E+01
   5.044  0.6451E+00  0.7694E+01
   5.054  0.6345E+00  0.7700E+01
   5.064  0.6140E+00  0.7707E+01
   5.074  0.6023E+00  0.7713E+01
   5.084  0.5996E+00  0.7719E+01
   5.094  0.5987E+00  0.7725E+01
   5.104  0.5975E+00  0.7731E+01
   5.114  0.5960E+00  0.7737E+01
   5.124  0.5941E+00  0.7743E+01
   5.134  0.5905E+00  0.7748E+01
   5.144  0.5824E+00  0.7754E+01
   5.154  0.5743E+00  0.7760E+01
   5.164  0.5662E+00  0.7766E+01
   5.174  0.5583E+00  0.7771E+01
   5.184  0.5503E+00  0.7777E+01
   5.194  0.5424E+00  0.7782E+01
   5.204  0.5514E+00  0.7788E+01
   5.214  0.5574E+00  0.7793E+01
   5.224  0.5571E+00  0.7799E+01
   5.234  0.5504E+00  0.7805E+01
   5.244  0.5373E+00  0.7810E+01
   5.254  0.5179E+00  0.7815E+01
   5.264  0.4922E+00  0.7820E+01
   5.274  0.4822E+00  0.7825E+01
   5.284  0.4738E+00  0.7830E+01
   5.294  0.4650E+00  0.7835E+01
   5.304  0.4559E+00  0.7839E+01
   5.314  0.4462E+00  0.7844E+01
   5.324  0.4358E+00  0.7848E+01
   5.334  0.4249E+00  0.7853E+01
   5.344  0.4133E+00  0.7857E+01
   5.354  0.4010E+00  0.7861E+01
   5.364  0.3923E+00  0.7865E+01
   5.374  0.3841E+00  0.7869E+01
   5.384  0.3808E+00  0.7872E+01
   5.394  0.3786E+00  0.7876E+01
   5.404  0.3763E+00  0.7880E+01
   5.414  0.3739E+00  0.7884E+01
   5.424  0.3713E+00  0.7888E+01
   5.434  0.3686E+00  0.7891E+01
   5.444  0.3659E+00  0.7895E+01
   5.454  0.3630E+00  0.7899E+01
   5.464  0.3582E+00  0.7902E+01
   5.474  0.3523E+00  0.7906E+01
   5.484  0.3462E+00  0.7909E+01
   5.494  0.3401E+00  0.7913E+01
   5.504  0.3338E+00  0.7916E+01
   5.514  0.3275E+00  0.7919E+01
   5.524  0.3211E+00  0.7923E+01
   5.534  0.3147E+00  0.7926E+01
   5.544  0.3082E+00  0.7929E+01
   5.554  0.3016E+00  0.7932E+01
   5.564  0.2949E+00  0.7935E+01
   5.574  0.2882E+00  0.7938E+01
   5.584  0.2814E+00  0.7941E+01
   5.594  0.2745E+00  0.7943E+01
   5.604  0.2675E+00  0.7946E+01
   5.614  0.2605E+00  0.7949E+01
   5.624  0.2531E+00  0.7951E+01
   5.634  0.2453E+00  0.7954E+01
   5.644  0.2370E+00  0.7956E+01
   5.654  0.2285E+00  0.7959E+01
   5.664  0.2200E+00  0.7961E+01
   5.674  0.2114E+00  0.7963E+01
   5.684  0.2027E+00  0.7965E+01
   5.694  0.1940E+00  0.7967E+01
   5.704  0.1852E+00  0.7969E+01
   5.714  0.1781E+00  0.7971E+01
   5.724  0.1728E+00  0.7972E+01
   5.734  0.1675E+00  0.7974E+01
   5.744  0.1622E+00  0.7976E+01
   5.754  0.1568E+00  0.7977E+01
   5.764  0.1514E+00  0.7979E+01
   5.774  0.1459E+00  0.7980E+01
   5.784  0.1405E+00  0.7982E+01
   5.794  0.1350E+00  0.7983E+01
   5.804  0.1295E+00  0.7985E+01
   5.814  0.1239E+00  0.7986E+01
   5.824  0.1183E+00  0.7987E+01
   5.834  0.1127E+00  0.7988E+01
   5.844  0.1071E+00  0.7989E+01
   5.854  0.1014E+00  0.7990E+01
   5.864  0.9572E-01  0.7991E+01
   5.874  0.9000E-01  0.7992E+01
   5.884  0.8425E-01  0.7993E+01
   5.894  0.7848E-01  0.7994E+01
   5.904  0.7267E-01  0.7995E+01
   5.914  0.6684E-01  0.7995E+01
   5.924  0.9440E-01  0.7996E+01
   5.934  0.1098E+00  0.7997E+01
   5.944  0.5869E-01  0.7998E+01
   5.954  0.3921E-01  0.7999E+01
   5.964  0.3239E-01  0.7999E+01
   5.974  0.2622E-01  0.7999E+01
   5.984  0.2070E-01  0.7999E+01
   5.994  0.1584E-01  0.8000E+01
   6.004  0.1162E-01  0.8000E+01
   6.014  0.8056E-02  0.8000E+01
   6.024  0.5142E-02  0.8000E+01
   6.034  0.2880E-02  0.8000E+01
   6.044  0.1269E-02  0.8000E+01
   6.054  0.3090E-03  0.8000E+01
   6.064  0.0000E+00  0.8000E+01
   6.074  0.0000E+00  0.8000E+01
   6.084  0.0000E+00  0.8000E+01
   6.094  0.0000E+00  0.8000E+01
   6.104  0.0000E+00  0.8000E+01
   6.114  0.0000E+00  0.8000E+01
   6.124  0.0000E+00  0.8000E+01
   6.134  0.0000E+00  0.8000E+01
   6.144  0.0000E+00  0.8000E+01
   6.154  0.0000E+00  0.8000E+01
   6.164  0.0000E+00  0.8000E+01
   6.174  0.0000E+00  0.8000E+01
   6.184  0.0000E+00  0.8000E+01
   6.194  0.0000E+00  0.8000E+01
   6.204  0.0000E+00  0.8000E+01
   6.214  0.0000E+00  0.8000E+01
   6.224  0.0000E+00  0.8000E+01
   6.234  0.0000E+00  0.8000E+01
   6.244  0.0000E+00  0.8000E+01
   6.254  0.0000E+00  0.8000E+01
   6.264  0.0000E+00  0.8000E+01
   6.274  0.0000E+00  0.8000E+01
   6.284  0.0000E+00  0.8000E+01
   6.294  0.0000E+00  0.8000E+01
   6.304  0.0000E+00  0.8000E+01
   6.314  0.0000E+00  0.8000E+01
   6.324  0.0000E+00  0.8000E+01
   6.334  0.0000E+00  0.8000E+01
   6.344  0.0000E+00  0.8000E+01
   6.354  0.0000E+00  0.8000E+01
   6.364  0.0000E+00  0.8000E+01
   6.374  0.0000E+00  0.8000E+01
   6.384  0.0000E+00  0.8000E+01
   6.394  0.0000E+00  0.8000E+01
   6.404  0.0000E+00  0.8000E+01
   6.414  0.0000E+00  0.8000E+01
   6.424  0.0000E+00  0.8000E+01
   6.434  0.0000E+00  0.8000E+01
   6.444  0.0000E+00  0.8000E+01
   6.454  0.0000E+00  0.8000E+01
   6.464  0.0000E+00  0.8000E+01
   6.474  0.0000E+00  0.8000E+01
   6.484  0.0000E+00  0.8000E+01
   6.494  0.0000E+00  0.8000E+01
   6.504  0.0000E+00  0.8000E+01
   6.514  0.0000E+00  0.8000E+01
   6.524  0.0000E+00  0.8000E+01
   6.534  0.0000E+00  0.8000E+01
   6.544  0.0000E+00  0.8000E+01
   6.554  0.0000E+00  0.8000E+01
   6.564  0.0000E+00  0.8000E+01
   6.574  0.0000E+00  0.8000E+01
   6.584  0.1344E-05  0.8000E+01
   6.594  0.2585E-03  0.8000E+01
   6.604  0.9606E-03  0.8000E+01
   6.614  0.2108E-02  0.8000E+01
   6.624  0.3700E-02  0.8000E+01
   6.634  0.5737E-02  0.8000E+01
   6.644  0.8220E-02  0.8000E+01
   6.654  0.1115E-01  0.8000E+01
   6.664  0.1452E-01  0.8000E+01
   6.674  0.1834E-01  0.8001E+01
   6.684  0.2260E-01  0.8001E+01
   6.694  0.2731E-01  0.8001E+01
   6.704  0.3246E-01  0.8001E+01
   6.714  0.3806E-01  0.8002E+01
   6.724  0.4413E-01  0.8002E+01
   6.734  0.5164E-01  0.8003E+01
   6.744  0.6108E-01  0.8003E+01
   6.754  0.7248E-01  0.8004E+01
   6.764  0.8587E-01  0.8005E+01
   6.774  0.1012E+00  0.8005E+01
   6.784  0.1186E+00  0.8007E+01
   6.794  0.1254E+00  0.8008E+01
   6.804  0.1302E+00  0.8009E+01
   6.814  0.1353E+00  0.8010E+01
   6.824  0.1407E+00  0.8012E+01
   6.834  0.1464E+00  0.8013E+01
   6.844  0.1525E+00  0.8015E+01
   6.854  0.1588E+00  0.8016E+01
   6.864  0.1655E+00  0.8018E+01
   6.874  0.1726E+00  0.8020E+01
   6.884  0.1799E+00  0.8021E+01
   6.894  0.1876E+00  0.8023E+01
   6.904  0.1956E+00  0.8025E+01
   6.914  0.2006E+00  0.8027E+01
   6.924  0.2057E+00  0.8029E+01
   6.934  0.2110E+00  0.8031E+01
   6.944  0.2165E+00  0.8033E+01
   6.954  0.2221E+00  0.8036E+01
   6.964  0.2277E+00  0.8038E+01
   6.974  0.2333E+00  0.8040E+01
   6.984  0.2391E+00  0.8042E+01
   6.994  0.2448E+00  0.8045E+01
   7.004  0.2506E+00  0.8047E+01
   7.014  0.2565E+00  0.8050E+01
   7.024  0.2624E+00  0.8052E+01
   7.034  0.2683E+00  0.8055E+01
   7.044  0.2743E+00  0.8058E+01
   7.054  0.2804E+00  0.8061E+01
   7.064  0.2865E+00  0.8063E+01
   7.074  0.2926E+00  0.8066E+01
   7.084  0.2988E+00  0.8069E+01
   7.094  0.3050E+00  0.8072E+01
   7.104  0.3112E+00  0.8075E+01
   7.114  0.3174E+00  0.8079E+01
   7.124  0.3237E+00  0.8082E+01
   7.134  0.3299E+00  0.8085E+01
   7.144  0.3361E+00  0.8088E+01
   7.154  0.3424E+00  0.8092E+01
   7.164  0.3494E+00  0.8095E+01
   7.174  0.3572E+00  0.8099E+01
   7.184  0.3657E+00  0.8102E+01
   7.194  0.3750E+00  0.8106E+01
   7.204  0.3854E+00  0.8110E+01
   7.214  0.3972E+00  0.8114E+01
   7.224  0.4103E+00  0.8118E+01
   7.234  0.4241E+00  0.8122E+01
   7.244  0.4326E+00  0.8126E+01
   7.254  0.4419E+00  0.8131E+01
   7.264  0.4516E+00  0.8135E+01
   7.274  0.4618E+00  0.8140E+01
   7.284  0.4725E+00  0.8144E+01
   7.294  0.4837E+00  0.8149E+01
   7.304  0.4955E+00  0.8154E+01
   7.314  0.5079E+00  0.8159E+01
   7.324  0.5208E+00  0.8164E+01
   7.334  0.5343E+00  0.8169E+01
   7.344  0.6192E+00  0.8175E+01
   7.354  0.6368E+00  0.8182E+01
   7.364  0.5154E+00  0.8187E+01
   7.374  0.5199E+00  0.8192E+01
   7.384  0.5244E+00  0.8197E+01
   7.394  0.5287E+00  0.8203E+01
   7.404  0.5329E+00  0.8208E+01
   7.414  0.5371E+00  0.8213E+01
   7.424  0.5422E+00  0.8219E+01
   7.434  0.5471E+00  0.8224E+01
   7.444  0.5518E+00  0.8230E+01
   7.454  0.5564E+00  0.8235E+01
   7.464  0.5609E+00  0.8241E+01
   7.474  0.5654E+00  0.8246E+01
   7.484  0.5699E+00  0.8252E+01
   7.494  0.5745E+00  0.8258E+01
   7.504  0.5791E+00  0.8264E+01
   7.514  0.5837E+00  0.8269E+01
   7.524  0.5884E+00  0.8275E+01
   7.534  0.5930E+00  0.8281E+01
   7.544  0.5977E+00  0.8287E+01
   7.554  0.6024E+00  0.8293E+01
   7.564  0.6072E+00  0.8299E+01
   7.574  0.6123E+00  0.8305E+01
   7.584  0.6178E+00  0.8311E+01
   7.594  0.6235E+00  0.8318E+01
   7.604  0.6296E+00  0.8324E+01
   7.614  0.6359E+00  0.8330E+01
   7.624  0.6423E+00  0.8337E+01
   7.634  0.6489E+00  0.8343E+01
   7.644  0.6557E+00  0.8350E+01
   7.654  0.6625E+00  0.8356E+01
   7.664  0.6695E+00  0.8363E+01
   7.674  0.6767E+00  0.8370E+01
   7.684  0.6840E+00  0.8376E+01
   7.694  0.6914E+00  0.8383E+01
   7.704  0.6989E+00  0.8390E+01
   7.714  0.7066E+00  0.8397E+01
   7.724  0.7144E+00  0.8404E+01
   7.734  0.7225E+00  0.8412E+01
   7.744  0.7528E+00  0.8419E+01
   7.754  0.8018E+00  0.8427E+01
   7.764  0.8055E+00  0.8435E+01
   7.774  0.8084E+00  0.8443E+01
   7.784  0.8109E+00  0.8451E+01
   7.794  0.8127E+00  0.8459E+01
   7.804  0.8138E+00  0.8467E+01
   7.814  0.8143E+00  0.8475E+01
   7.824  0.8229E+00  0.8484E+01
   7.834  0.8334E+00  0.8492E+01
   7.844  0.8440E+00  0.8500E+01
   7.854  0.8547E+00  0.8509E+01
   7.864  0.8654E+00  0.8517E+01
   7.874  0.8762E+00  0.8526E+01
   7.884  0.8864E+00  0.8535E+01
   7.894  0.8959E+00  0.8544E+01
   7.904  0.9059E+00  0.8553E+01
   7.914  0.9168E+00  0.8562E+01
   7.924  0.9282E+00  0.8571E+01
   7.934  0.9399E+00  0.8580E+01
   7.944  0.9521E+00  0.8590E+01
   7.954  0.9646E+00  0.8599E+01
   7.964  0.9775E+00  0.8609E+01
   7.974  0.9909E+00  0.8619E+01
   7.984  0.1005E+01  0.8629E+01
   7.994  0.1019E+01  0.8639E+01
   8.004  0.1035E+01  0.8649E+01
   8.014  0.1053E+01  0.8660E+01
   8.024  0.1073E+01  0.8670E+01
   8.034  0.1094E+01  0.8681E+01
   8.044  0.1122E+01  0.8692E+01
   8.054  0.1163E+01  0.8704E+01
   8.064  0.1219E+01  0.8716E+01
   8.074  0.1465E+01  0.8729E+01
   8.084  0.1608E+01  0.8744E+01
   8.094  0.1571E+01  0.8760E+01
   8.104  0.1504E+01  0.8775E+01
   8.114  0.1526E+01  0.8790E+01
   8.124  0.1546E+01  0.8806E+01
   8.134  0.1565E+01  0.8821E+01
   8.144  0.1582E+01  0.8837E+01
   8.154  0.1598E+01  0.8853E+01
   8.164  0.1613E+01  0.8869E+01
   8.174  0.1626E+01  0.8885E+01
   8.184  0.1637E+01  0.8902E+01
   8.194  0.1647E+01  0.8918E+01
   8.204  0.1656E+01  0.8934E+01
   8.214  0.1662E+01  0.8951E+01
   8.224  0.1667E+01  0.8968E+01
   8.234  0.1677E+01  0.8984E+01
   8.244  0.1691E+01  0.9001E+01
   8.254  0.1706E+01  0.9018E+01
   8.264  0.1721E+01  0.9035E+01
   8.274  0.1737E+01  0.9053E+01
   8.284  0.1752E+01  0.9070E+01
   8.294  0.1767E+01  0.9088E+01
   8.304  0.1782E+01  0.9105E+01
   8.314  0.1796E+01  0.9123E+01
   8.324  0.1813E+01  0.9141E+01
   8.334  0.1829E+01  0.9160E+01
   8.344  0.1961E+01  0.9178E+01
   8.354  0.2153E+01  0.9199E+01
   8.364  0.2153E+01  0.9221E+01
   8.374  0.2047E+01  0.9242E+01
   8.384  0.2039E+01  0.9262E+01
   8.394  0.2046E+01  0.9283E+01
   8.404  0.2049E+01  0.9303E+01
   8.414  0.2048E+01  0.9324E+01
   8.424  0.2045E+01  0.9344E+01
   8.434  0.2040E+01  0.9365E+01
   8.444  0.2033E+01  0.9385E+01
   8.454  0.2025E+01  0.9405E+01
   8.464  0.2015E+01  0.9425E+01
   8.474  0.2005E+01  0.9446E+01
   8.484  0.1992E+01  0.9466E+01
   8.494  0.1979E+01  0.9485E+01
   8.504  0.1964E+01  0.9505E+01
   8.514  0.1949E+01  0.9525E+01
   8.524  0.1932E+01  0.9544E+01
   8.534  0.1915E+01  0.9563E+01
   8.544  0.1897E+01  0.9582E+01
   8.554  0.1877E+01  0.9601E+01
   8.564  0.1857E+01  0.9620E+01
   8.574  0.1835E+01  0.9638E+01
   8.584  0.1813E+01  0.9657E+01
   8.594  0.1790E+01  0.9675E+01
   8.604  0.1767E+01  0.9692E+01
   8.614  0.1739E+01  0.9710E+01
   8.624  0.1689E+01  0.9727E+01
   8.634  0.1633E+01  0.9744E+01
   8.644  0.1578E+01  0.9760E+01
   8.654  0.1530E+01  0.9775E+01
   8.664  0.1497E+01  0.9790E+01
   8.674  0.1463E+01  0.9805E+01
   8.684  0.1433E+01  0.9820E+01
   8.694  0.1404E+01  0.9834E+01
   8.704  0.1377E+01  0.9848E+01
   8.714  0.1350E+01  0.9861E+01
   8.724  0.1323E+01  0.9875E+01
   8.734  0.1298E+01  0.9888E+01
   8.744  0.1274E+01  0.9901E+01
   8.754  0.1250E+01  0.9913E+01
   8.764  0.1227E+01  0.9926E+01
   8.774  0.1205E+01  0.9938E+01
   8.784  0.1183E+01  0.9950E+01
   8.794  0.1162E+01  0.9962E+01
   8.804  0.1142E+01  0.9973E+01
   8.814  0.1122E+01  0.9984E+01
   8.824  0.1103E+01  0.9996E+01
   8.834  0.1083E+01  0.1001E+02
   8.844  0.1064E+01  0.1002E+02
   8.854  0.1045E+01  0.1003E+02
   8.864  0.1025E+01  0.1004E+02
   8.874  0.1008E+01  0.1005E+02
   8.884  0.9940E+00  0.1006E+02
   8.894  0.9801E+00  0.1007E+02
   8.904  0.9665E+00  0.1008E+02
   8.914  0.9533E+00  0.1009E+02
   8.924  0.9406E+00  0.1010E+02
   8.934  0.9282E+00  0.1011E+02
   8.944  0.9163E+00  0.1012E+02
   8.954  0.9047E+00  0.1012E+02
   8.964  0.8935E+00  0.1013E+02
   8.974  0.8826E+00  0.1014E+02
   8.984  0.8717E+00  0.1015E+02
   8.994  0.8612E+00  0.1016E+02
   9.004  0.8513E+00  0.1017E+02
   9.014  0.8426E+00  0.1018E+02
   9.024  0.8369E+00  0.1019E+02
   9.034  0.8316E+00  0.1019E+02
   9.044  0.8263E+00  0.1020E+02
   9.054  0.8204E+00  0.1021E+02
   9.064  0.8145E+00  0.1022E+02
   9.074  0.8094E+00  0.1023E+02
   9.084  0.8050E+00  0.1023E+02
   9.094  0.8012E+00  0.1024E+02
   9.104  0.7980E+00  0.1025E+02
   9.114  0.7954E+00  0.1026E+02
   9.124  0.7932E+00  0.1027E+02
   9.134  0.7913E+00  0.1027E+02
   9.144  0.7897E+00  0.1028E+02
   9.154  0.7885E+00  0.1029E+02
   9.164  0.7984E+00  0.1030E+02
   9.174  0.8106E+00  0.1031E+02
   9.184  0.8249E+00  0.1031E+02
   9.194  0.8412E+00  0.1032E+02
   9.204  0.8588E+00  0.1033E+02
   9.214  0.8819E+00  0.1034E+02
   9.224  0.9135E+00  0.1035E+02
   9.234  0.1001E+01  0.1036E+02
   9.244  0.1102E+01  0.1037E+02
   9.254  0.1175E+01  0.1038E+02
   9.264  0.1399E+01  0.1039E+02
   9.274  0.1134E+01  0.1040E+02
   9.284  0.1175E+01  0.1042E+02
   9.294  0.1219E+01  0.1043E+02
   9.304  0.1266E+01  0.1044E+02
   9.314  0.1316E+01  0.1045E+02
   9.324  0.1460E+01  0.1047E+02
   9.334  0.1522E+01  0.1048E+02
   9.344  0.1580E+01  0.1050E+02
   9.354  0.1631E+01  0.1051E+02
   9.364  0.1677E+01  0.1053E+02
   9.374  0.1722E+01  0.1055E+02
   9.384  0.1763E+01  0.1056E+02
   9.394  0.1801E+01  0.1058E+02
   9.404  0.1836E+01  0.1060E+02
   9.414  0.1865E+01  0.1062E+02
   9.424  0.1888E+01  0.1064E+02
   9.434  0.1892E+01  0.1066E+02
   9.444  0.1877E+01  0.1068E+02
   9.454  0.1888E+01  0.1069E+02
   9.464  0.1922E+01  0.1071E+02
   9.474  0.1961E+01  0.1073E+02
   9.484  0.2002E+01  0.1075E+02
   9.494  0.2045E+01  0.1077E+02
   9.504  0.2090E+01  0.1079E+02
   9.514  0.2137E+01  0.1081E+02
   9.524  0.2185E+01  0.1084E+02
   9.534  0.2256E+01  0.1086E+02
   9.544  0.2346E+01  0.1088E+02
   9.554  0.2369E+01  0.1091E+02
   9.564  0.2262E+01  0.1093E+02
   9.574  0.2140E+01  0.1095E+02
   9.584  0.2062E+01  0.1097E+02
   9.594  0.2006E+01  0.1099E+02
   9.604  0.1959E+01  0.1101E+02
   9.614  0.1920E+01  0.1103E+02
   9.624  0.1929E+01  0.1105E+02
   9.634  0.1946E+01  0.1107E+02
   9.644  0.1946E+01  0.1109E+02
   9.654  0.1953E+01  0.1111E+02
   9.664  0.1959E+01  0.1113E+02
   9.674  0.1962E+01  0.1115E+02
   9.684  0.1963E+01  0.1117E+02
   9.694  0.1960E+01  0.1119E+02
   9.704  0.1954E+01  0.1121E+02
   9.714  0.1946E+01  0.1123E+02
   9.724  0.1934E+01  0.1125E+02
   9.734  0.1920E+01  0.1126E+02
   9.744  0.1903E+01  0.1128E+02
   9.754  0.1885E+01  0.1130E+02
   9.764  0.1876E+01  0.1132E+02
   9.774  0.1873E+01  0.1134E+02
   9.784  0.1855E+01  0.1136E+02
   9.794  0.1817E+01  0.1138E+02
   9.804  0.1804E+01  0.1140E+02
   9.814  0.1793E+01  0.1141E+02
   9.824  0.1782E+01  0.1143E+02
   9.834  0.1771E+01  0.1145E+02
   9.844  0.1760E+01  0.1147E+02
   9.854  0.1748E+01  0.1148E+02
   9.864  0.1737E+01  0.1150E+02
   9.874  0.1725E+01  0.1152E+02
   9.884  0.1714E+01  0.1154E+02
   9.894  0.1702E+01  0.1155E+02
   9.904  0.1691E+01  0.1157E+02
   9.914  0.1679E+01  0.1159E+02
   9.924  0.1667E+01  0.1160E+02
   9.934  0.1654E+01  0.1162E+02
   9.944  0.1643E+01  0.1164E+02
   9.954  0.1631E+01  0.1165E+02
   9.964  0.1620E+01  0.1167E+02
   9.974  0.1656E+01  0.1169E+02
   9.984  0.1669E+01  0.1170E+02
   9.994  0.1616E+01  0.1172E+02
  10.004  0.1564E+01  0.1173E+02
  10.014  0.1547E+01  0.1175E+02
  10.024  0.1531E+01  0.1177E+02
  10.034  0.1515E+01  0.1178E+02
  10.044  0.1499E+01  0.1180E+02
  10.054  0.1482E+01  0.1181E+02
  10.064  0.1465E+01  0.1183E+02
  10.074  0.1449E+01  0.1184E+02
  10.084  0.1432E+01  0.1185E+02
  10.094  0.1417E+01  0.1187E+02
  10.104  0.1402E+01  0.1188E+02
  10.114  0.1389E+01  0.1190E+02
  10.124  0.1377E+01  0.1191E+02
  10.134  0.1361E+01  0.1192E+02
  10.144  0.1345E+01  0.1194E+02
  10.154  0.1332E+01  0.1195E+02
  10.164  0.1324E+01  0.1196E+02
  10.174  0.1316E+01  0.1198E+02
  10.184  0.1308E+01  0.1199E+02
  10.194  0.1302E+01  0.1200E+02
  10.204  0.1295E+01  0.1202E+02
  10.214  0.1288E+01  0.1203E+02
  10.224  0.1283E+01  0.1204E+02
  10.234  0.1279E+01  0.1206E+02
  10.244  0.1272E+01  0.1207E+02
  10.254  0.1262E+01  0.1208E+02
  10.264  0.1257E+01  0.1209E+02
  10.274  0.1256E+01  0.1211E+02
  10.284  0.1259E+01  0.1212E+02
  10.294  0.1258E+01  0.1213E+02
  10.304  0.1222E+01  0.1214E+02
  10.314  0.1218E+01  0.1216E+02
  10.324  0.1223E+01  0.1217E+02
  10.334  0.1209E+01  0.1218E+02
  10.344  0.1196E+01  0.1219E+02
  10.354  0.1184E+01  0.1220E+02
  10.364  0.1173E+01  0.1222E+02
  10.374  0.1163E+01  0.1223E+02
  10.384  0.1154E+01  0.1224E+02
  10.394  0.1146E+01  0.1225E+02
  10.404  0.1139E+01  0.1226E+02
  10.414  0.1133E+01  0.1227E+02
  10.424  0.1127E+01  0.1228E+02
  10.434  0.1123E+01  0.1230E+02
  10.444  0.1120E+01  0.1231E+02
  10.454  0.1118E+01  0.1232E+02
  10.464  0.1117E+01  0.1233E+02
  10.474  0.1118E+01  0.1234E+02
  10.484  0.1120E+01  0.1235E+02
  10.494  0.1124E+01  0.1236E+02
  10.504  0.1131E+01  0.1237E+02
  10.514  0.1142E+01  0.1239E+02
  10.524  0.1155E+01  0.1240E+02
  10.534  0.1169E+01  0.1241E+02
  10.544  0.1184E+01  0.1242E+02
  10.554  0.1189E+01  0.1243E+02
  10.564  0.1186E+01  0.1244E+02
  10.574  0.1208E+01  0.1246E+02
  10.584  0.1257E+01  0.1247E+02
  10.594  0.1332E+01  0.1248E+02
  10.604  0.1371E+01  0.1250E+02
  10.614  0.1375E+01  0.1251E+02
  10.624  0.1363E+01  0.1252E+02
  10.634  0.1346E+01  0.1254E+02
  10.644  0.1323E+01  0.1255E+02
  10.654  0.1295E+01  0.1256E+02
  10.664  0.1261E+01  0.1258E+02
  10.674  0.1224E+01  0.1259E+02
  10.684  0.1195E+01  0.1260E+02
  10.694  0.1176E+01  0.1261E+02
  10.704  0.1161E+01  0.1262E+02
  10.714  0.1147E+01  0.1263E+02
  10.724  0.1132E+01  0.1265E+02
  10.734  0.1116E+01  0.1266E+02
  10.744  0.1102E+01  0.1267E+02
  10.754  0.1087E+01  0.1268E+02
  10.764  0.1071E+01  0.1269E+02
  10.774  0.1056E+01  0.1270E+02
  10.784  0.1041E+01  0.1271E+02
  10.794  0.1029E+01  0.1272E+02
  10.804  0.1025E+01  0.1273E+02
  10.814  0.1024E+01  0.1274E+02
  10.824  0.1023E+01  0.1275E+02
  10.834  0.1021E+01  0.1276E+02
  10.844  0.1015E+01  0.1277E+02
  10.854  0.1008E+01  0.1278E+02
  10.864  0.1004E+01  0.1279E+02
  10.874  0.9995E+00  0.1280E+02
  10.884  0.9943E+00  0.1281E+02
  10.894  0.1010E+01  0.1282E+02
  10.904  0.1029E+01  0.1283E+02
  10.914  0.1053E+01  0.1284E+02
  10.924  0.1080E+01  0.1285E+02
  10.934  0.1168E+01  0.1287E+02
  10.944  0.1184E+01  0.1288E+02
  10.954  0.1158E+01  0.1289E+02
  10.964  0.1123E+01  0.1290E+02
  10.974  0.1123E+01  0.1291E+02
  10.984  0.1124E+01  0.1292E+02
  10.994  0.1126E+01  0.1293E+02
  11.004  0.1128E+01  0.1295E+02
  11.014  0.1131E+01  0.1296E+02
  11.024  0.1135E+01  0.1297E+02
  11.034  0.1158E+01  0.1298E+02
  11.044  0.1182E+01  0.1299E+02
  11.054  0.1203E+01  0.1300E+02
  11.064  0.1220E+01  0.1302E+02
  11.074  0.1235E+01  0.1303E+02
  11.084  0.1245E+01  0.1304E+02
  11.094  0.1250E+01  0.1305E+02
  11.104  0.1251E+01  0.1307E+02
  11.114  0.1248E+01  0.1308E+02
  11.124  0.1241E+01  0.1309E+02
  11.134  0.1231E+01  0.1310E+02
  11.144  0.1224E+01  0.1311E+02
  11.154  0.1222E+01  0.1313E+02
  11.164  0.1220E+01  0.1314E+02
  11.174  0.1218E+01  0.1315E+02
  11.184  0.1216E+01  0.1316E+02
  11.194  0.1214E+01  0.1318E+02
  11.204  0.1212E+01  0.1319E+02
  11.214  0.1210E+01  0.1320E+02
  11.224  0.1209E+01  0.1321E+02
  11.234  0.1207E+01  0.1322E+02
  11.244  0.1206E+01  0.1324E+02
  11.254  0.1205E+01  0.1325E+02
  11.264  0.1204E+01  0.1326E+02
  11.274  0.1203E+01  0.1327E+02
  11.284  0.1202E+01  0.1328E+02
  11.294  0.1202E+01  0.1330E+02
  11.304  0.1201E+01  0.1331E+02
  11.314  0.1200E+01  0.1332E+02
  11.324  0.1198E+01  0.1333E+02
  11.334  0.1196E+01  0.1334E+02
  11.344  0.1194E+01  0.1336E+02
  11.354  0.1192E+01  0.1337E+02
  11.364  0.1191E+01  0.1338E+02
  11.374  0.1189E+01  0.1339E+02
  11.384  0.1186E+01  0.1340E+02
  11.394  0.1184E+01  0.1342E+02
  11.404  0.1182E+01  0.1343E+02
  11.414  0.1181E+01  0.1344E+02
  11.424  0.1179E+01  0.1345E+02
  11.434  0.1179E+01  0.1346E+02
  11.444  0.1179E+01  0.1347E+02
  11.454  0.1180E+01  0.1349E+02
  11.464  0.1181E+01  0.1350E+02
  11.474  0.1181E+01  0.1351E+02
  11.484  0.1180E+01  0.1352E+02
  11.494  0.1179E+01  0.1353E+02
  11.504  0.1179E+01  0.1355E+02
  11.514  0.1179E+01  0.1356E+02
  11.524  0.1177E+01  0.1357E+02
  11.534  0.1177E+01  0.1358E+02
  11.544  0.1178E+01  0.1359E+02
  11.554  0.1179E+01  0.1360E+02
  11.564  0.1179E+01  0.1362E+02
  11.574  0.1180E+01  0.1363E+02
  11.584  0.1181E+01  0.1364E+02
  11.594  0.1182E+01  0.1365E+02
  11.604  0.1183E+01  0.1366E+02
  11.614  0.1184E+01  0.1368E+02
  11.624  0.1184E+01  0.1369E+02
  11.634  0.1185E+01  0.1370E+02
  11.644  0.1186E+01  0.1371E+02
  11.654  0.1186E+01  0.1372E+02
  11.664  0.1186E+01  0.1373E+02
  11.674  0.1183E+01  0.1375E+02
  11.684  0.1180E+01  0.1376E+02
  11.694  0.1176E+01  0.1377E+02
  11.704  0.1173E+01  0.1378E+02
  11.714  0.1170E+01  0.1379E+02
  11.724  0.1170E+01  0.1381E+02
  11.734  0.1171E+01  0.1382E+02
  11.744  0.1172E+01  0.1383E+02
  11.754  0.1172E+01  0.1384E+02
  11.764  0.1172E+01  0.1385E+02
  11.774  0.1171E+01  0.1386E+02
  11.784  0.1170E+01  0.1388E+02
  11.794  0.1168E+01  0.1389E+02
  11.804  0.1165E+01  0.1390E+02
  11.814  0.1160E+01  0.1391E+02
  11.824  0.1154E+01  0.1392E+02
  11.834  0.1147E+01  0.1393E+02
  11.844  0.1140E+01  0.1394E+02
  11.854  0.1132E+01  0.1396E+02
  11.864  0.1124E+01  0.1397E+02
  11.874  0.1114E+01  0.1398E+02
  11.884  0.1103E+01  0.1399E+02
  11.894  0.1091E+01  0.1400E+02
  11.904  0.1078E+01  0.1401E+02
  11.914  0.1064E+01  0.1402E+02
  11.924  0.1049E+01  0.1403E+02
  11.934  0.1033E+01  0.1404E+02
  11.944  0.1021E+01  0.1405E+02
  11.954  0.1011E+01  0.1406E+02
  11.964  0.1001E+01  0.1407E+02
  11.974  0.9913E+00  0.1408E+02
  11.984  0.9824E+00  0.1409E+02
  11.994  0.9761E+00  0.1410E+02
  12.004  0.9723E+00  0.1411E+02
  12.014  0.9707E+00  0.1412E+02
  12.024  0.9713E+00  0.1413E+02
  12.034  0.9742E+00  0.1414E+02
  12.044  0.9792E+00  0.1415E+02
  12.054  0.9518E+00  0.1416E+02
  12.064  0.9414E+00  0.1417E+02
  12.074  0.9400E+00  0.1418E+02
  12.084  0.9610E+00  0.1419E+02
  12.094  0.8863E+00  0.1420E+02
  12.104  0.8785E+00  0.1421E+02
  12.114  0.8687E+00  0.1422E+02
  12.124  0.8671E+00  0.1423E+02
  12.134  0.8664E+00  0.1423E+02
  12.144  0.8659E+00  0.1424E+02
  12.154  0.8655E+00  0.1425E+02
  12.164  0.8654E+00  0.1426E+02
  12.174  0.8654E+00  0.1427E+02
  12.184  0.8657E+00  0.1428E+02
  12.194  0.8663E+00  0.1429E+02
  12.204  0.8674E+00  0.1429E+02
  12.214  0.8688E+00  0.1430E+02
  12.224  0.8706E+00  0.1431E+02
  12.234  0.8728E+00  0.1432E+02
  12.244  0.8753E+00  0.1433E+02
  12.254  0.8783E+00  0.1434E+02
  12.264  0.8816E+00  0.1435E+02
  12.274  0.8891E+00  0.1436E+02
  12.284  0.8978E+00  0.1437E+02
  12.294  0.9084E+00  0.1437E+02
  12.304  0.9189E+00  0.1438E+02
  12.314  0.9291E+00  0.1439E+02
  12.324  0.9392E+00  0.1440E+02
  12.334  0.9493E+00  0.1441E+02
  12.344  0.9593E+00  0.1442E+02
  12.354  0.9691E+00  0.1443E+02
  12.364  0.9789E+00  0.1444E+02
  12.374  0.9886E+00  0.1445E+02
  12.384  0.9981E+00  0.1446E+02
  12.394  0.1008E+01  0.1447E+02
  12.404  0.1017E+01  0.1448E+02
  12.414  0.1026E+01  0.1449E+02
  12.424  0.1035E+01  0.1450E+02
  12.434  0.1045E+01  0.1451E+02
  12.444  0.1054E+01  0.1452E+02
  12.454  0.1063E+01  0.1453E+02
  12.464  0.1072E+01  0.1454E+02
  12.474  0.1081E+01  0.1455E+02
  12.484  0.1090E+01  0.1456E+02
  12.494  0.1098E+01  0.1458E+02
  12.504  0.1107E+01  0.1459E+02
  12.514  0.1116E+01  0.1460E+02
  12.524  0.1112E+01  0.1461E+02
  12.534  0.1113E+01  0.1462E+02
  12.544  0.1118E+01  0.1463E+02
  12.554  0.1122E+01  0.1464E+02
  12.564  0.1126E+01  0.1465E+02
  12.574  0.1129E+01  0.1466E+02
  12.584  0.1132E+01  0.1468E+02
  12.594  0.1135E+01  0.1469E+02
  12.604  0.1137E+01  0.1470E+02
  12.614  0.1139E+01  0.1471E+02
  12.624  0.1141E+01  0.1472E+02
  12.634  0.1142E+01  0.1473E+02
  12.644  0.1143E+01  0.1474E+02
  12.654  0.1143E+01  0.1476E+02
  12.664  0.1143E+01  0.1477E+02
  12.674  0.1142E+01  0.1478E+02
  12.684  0.1141E+01  0.1479E+02
  12.694  0.1138E+01  0.1480E+02
  12.704  0.1135E+01  0.1481E+02
  12.714  0.1133E+01  0.1482E+02
  12.724  0.1132E+01  0.1484E+02
  12.734  0.1132E+01  0.1485E+02
  12.744  0.1133E+01  0.1486E+02
  12.754  0.1133E+01  0.1487E+02
  12.764  0.1132E+01  0.1488E+02
  12.774  0.1131E+01  0.1489E+02
  12.784  0.1130E+01  0.1490E+02
  12.794  0.1128E+01  0.1491E+02
  12.804  0.1127E+01  0.1493E+02
  12.814  0.1125E+01  0.1494E+02
  12.824  0.1123E+01  0.1495E+02
  12.834  0.1121E+01  0.1496E+02
  12.844  0.1119E+01  0.1497E+02
  12.854  0.1117E+01  0.1498E+02
  12.864  0.1115E+01  0.1499E+02
  12.874  0.1111E+01  0.1500E+02
  12.884  0.1105E+01  0.1502E+02
  12.894  0.1099E+01  0.1503E+02
  12.904  0.1094E+01  0.1504E+02
  12.914  0.1087E+01  0.1505E+02
  12.924  0.1081E+01  0.1506E+02
  12.934  0.1075E+01  0.1507E+02
  12.944  0.1068E+01  0.1508E+02
  12.954  0.1061E+01  0.1509E+02
  12.964  0.1054E+01  0.1510E+02
  12.974  0.1047E+01  0.1511E+02
  12.984  0.1039E+01  0.1512E+02
  12.994  0.1032E+01  0.1513E+02
  13.004  0.1024E+01  0.1514E+02
  13.014  0.1016E+01  0.1515E+02
  13.024  0.1008E+01  0.1516E+02
  13.034  0.9989E+00  0.1517E+02
  13.044  0.9901E+00  0.1518E+02
  13.054  0.9810E+00  0.1519E+02
  13.064  0.9716E+00  0.1520E+02
  13.074  0.9615E+00  0.1521E+02
  13.084  0.9514E+00  0.1522E+02
  13.094  0.9411E+00  0.1523E+02
  13.104  0.9305E+00  0.1524E+02
  13.114  0.9198E+00  0.1525E+02
  13.124  0.9088E+00  0.1526E+02
  13.134  0.8976E+00  0.1527E+02
  13.144  0.8860E+00  0.1528E+02
  13.154  0.8738E+00  0.1529E+02
  13.164  0.8615E+00  0.1530E+02
  13.174  0.8498E+00  0.1530E+02
  13.184  0.8384E+00  0.1531E+02
  13.194  0.8275E+00  0.1532E+02
  13.204  0.8170E+00  0.1533E+02
  13.214  0.8069E+00  0.1534E+02
  13.224  0.7973E+00  0.1534E+02
  13.234  0.7881E+00  0.1535E+02
  13.244  0.7795E+00  0.1536E+02
  13.254  0.7714E+00  0.1537E+02
  13.264  0.7638E+00  0.1538E+02
  13.274  0.7565E+00  0.1538E+02
  13.284  0.7496E+00  0.1539E+02
  13.294  0.7430E+00  0.1540E+02
  13.304  0.7366E+00  0.1541E+02
  13.314  0.7290E+00  0.1541E+02
  13.324  0.7217E+00  0.1542E+02
  13.334  0.7147E+00  0.1543E+02
  13.344  0.7079E+00  0.1543E+02
  13.354  0.7014E+00  0.1544E+02
  13.364  0.6952E+00  0.1545E+02
  13.374  0.6892E+00  0.1546E+02
  13.384  0.6835E+00  0.1546E+02
  13.394  0.6780E+00  0.1547E+02
  13.404  0.6729E+00  0.1548E+02
  13.414  0.6680E+00  0.1548E+02
  13.424  0.6633E+00  0.1549E+02
  13.434  0.6589E+00  0.1550E+02
  13.444  0.6548E+00  0.1550E+02
  13.454  0.6509E+00  0.1551E+02
  13.464  0.6479E+00  0.1552E+02
  13.474  0.6450E+00  0.1552E+02
  13.484  0.6415E+00  0.1553E+02
  13.494  0.6378E+00  0.1554E+02
  13.504  0.6340E+00  0.1554E+02
  13.514  0.6301E+00  0.1555E+02
  13.524  0.6243E+00  0.1555E+02
  13.534  0.6140E+00  0.1556E+02
  13.544  0.6048E+00  0.1557E+02
  13.554  0.5941E+00  0.1557E+02
  13.564  0.5821E+00  0.1558E+02
  13.574  0.5686E+00  0.1558E+02
  13.584  0.5537E+00  0.1559E+02
  13.594  0.5374E+00  0.1560E+02
  13.604  0.5216E+00  0.1560E+02
  13.614  0.5139E+00  0.1561E+02
  13.624  0.5089E+00  0.1561E+02
  13.634  0.5044E+00  0.1562E+02
  13.644  0.5004E+00  0.1562E+02
  13.654  0.4969E+00  0.1563E+02
  13.664  0.4939E+00  0.1563E+02
  13.674  0.4919E+00  0.1564E+02
  13.684  0.4903E+00  0.1564E+02
  13.694  0.4891E+00  0.1565E+02
  13.704  0.4882E+00  0.1565E+02
  13.714  0.4874E+00  0.1566E+02
  13.724  0.4868E+00  0.1566E+02
  13.734  0.4863E+00  0.1566E+02
  13.744  0.4859E+00  0.1567E+02
  13.754  0.4857E+00  0.1567E+02
  13.764  0.4856E+00  0.1568E+02
  13.774  0.4855E+00  0.1568E+02
  13.784  0.4852E+00  0.1569E+02
  13.794  0.4846E+00  0.1569E+02
  13.804  0.4837E+00  0.1570E+02
  13.814  0.4825E+00  0.1570E+02
  13.824  0.4810E+00  0.1571E+02
  13.834  0.4793E+00  0.1571E+02
  13.844  0.4772E+00  0.1572E+02
  13.854  0.4887E+00  0.1572E+02
  13.864  0.4966E+00  0.1573E+02
  13.874  0.4994E+00  0.1573E+02
  13.884  0.4973E+00  0.1574E+02
  13.894  0.4901E+00  0.1574E+02
  13.904  0.4780E+00  0.1575E+02
  13.914  0.4609E+00  0.1575E+02
  13.924  0.4388E+00  0.1576E+02
  13.934  0.4117E+00  0.1576E+02
  13.944  0.3812E+00  0.1576E+02
  13.954  0.3550E+00  0.1577E+02
  13.964  0.3339E+00  0.1577E+02
  13.974  0.3178E+00  0.1578E+02
  13.984  0.3036E+00  0.1578E+02
  13.994  0.2903E+00  0.1578E+02
  14.004  0.2780E+00  0.1578E+02
  14.014  0.2666E+00  0.1579E+02
  14.024  0.2561E+00  0.1579E+02
  14.034  0.2466E+00  0.1579E+02
  14.044  0.2435E+00  0.1579E+02
  14.054  0.2417E+00  0.1580E+02
  14.064  0.2399E+00  0.1580E+02
  14.074  0.2382E+00  0.1580E+02
  14.084  0.2364E+00  0.1580E+02
  14.094  0.2347E+00  0.1581E+02
  14.104  0.2329E+00  0.1581E+02
  14.114  0.2312E+00  0.1581E+02
  14.124  0.2295E+00  0.1581E+02
  14.134  0.2278E+00  0.1582E+02
  14.144  0.2261E+00  0.1582E+02
  14.154  0.2244E+00  0.1582E+02
  14.164  0.2227E+00  0.1582E+02
  14.174  0.2210E+00  0.1582E+02
  14.184  0.2194E+00  0.1583E+02
  14.194  0.2177E+00  0.1583E+02
  14.204  0.2161E+00  0.1583E+02
  14.214  0.2144E+00  0.1583E+02
  14.224  0.2128E+00  0.1584E+02
  14.234  0.2112E+00  0.1584E+02
  14.244  0.2096E+00  0.1584E+02
  14.254  0.2080E+00  0.1584E+02
  14.264  0.2064E+00  0.1584E+02
  14.274  0.2048E+00  0.1585E+02
  14.284  0.2033E+00  0.1585E+02
  14.294  0.2017E+00  0.1585E+02
  14.304  0.2002E+00  0.1585E+02
  14.314  0.1987E+00  0.1585E+02
  14.324  0.1971E+00  0.1586E+02
  14.334  0.1956E+00  0.1586E+02
  14.344  0.1942E+00  0.1586E+02
  14.354  0.1927E+00  0.1586E+02
  14.364  0.1913E+00  0.1586E+02
  14.374  0.1899E+00  0.1587E+02
  14.384  0.1885E+00  0.1587E+02
  14.394  0.1872E+00  0.1587E+02
  14.404  0.1858E+00  0.1587E+02
  14.414  0.1845E+00  0.1587E+02
  14.424  0.1833E+00  0.1588E+02
  14.434  0.1820E+00  0.1588E+02
  14.444  0.1808E+00  0.1588E+02
  14.454  0.1796E+00  0.1588E+02
  14.464  0.1784E+00  0.1588E+02
  14.474  0.1772E+00  0.1588E+02
  14.484  0.1761E+00  0.1589E+02
  14.494  0.1750E+00  0.1589E+02
  14.504  0.1739E+00  0.1589E+02
  14.514  0.1729E+00  0.1589E+02
  14.524  0.1718E+00  0.1589E+02
  14.534  0.1708E+00  0.1589E+02
  14.544  0.1698E+00  0.1590E+02
  14.554  0.1689E+00  0.1590E+02
  14.564  0.1679E+00  0.1590E+02
  14.574  0.1670E+00  0.1590E+02
  14.584  0.1661E+00  0.1590E+02
  14.594  0.1652E+00  0.1590E+02
  14.604  0.1648E+00  0.1591E+02
  14.614  0.1648E+00  0.1591E+02
  14.624  0.1648E+00  0.1591E+02
  14.634  0.1647E+00  0.1591E+02
  14.644  0.1646E+00  0.1591E+02
  14.654  0.1646E+00  0.1591E+02
  14.664  0.1645E+00  0.1592E+02
  14.674  0.1643E+00  0.1592E+02
  14.684  0.1642E+00  0.1592E+02
  14.694  0.1640E+00  0.1592E+02
  14.704  0.1638E+00  0.1592E+02
  14.714  0.1636E+00  0.1592E+02
  14.724  0.1634E+00  0.1593E+02
  14.734  0.1632E+00  0.1593E+02
  14.744  0.1629E+00  0.1593E+02
  14.754  0.1626E+00  0.1593E+02
  14.764  0.1623E+00  0.1593E+02
  14.774  0.1620E+00  0.1593E+02
  14.784  0.1617E+00  0.1594E+02
  14.794  0.1613E+00  0.1594E+02
  14.804  0.1610E+00  0.1594E+02
  14.814  0.1606E+00  0.1594E+02
  14.824  0.1602E+00  0.1594E+02
  14.834  0.1595E+00  0.1594E+02
  14.844  0.1586E+00  0.1595E+02
  14.854  0.1580E+00  0.1595E+02
  14.864  0.1578E+00  0.1595E+02
  14.874  0.1580E+00  0.1595E+02
  14.884  0.1585E+00  0.1595E+02
  14.894  0.1594E+00  0.1595E+02
  14.904  0.1606E+00  0.1595E+02
  14.914  0.1626E+00  0.1596E+02
  14.924  0.1668E+00  0.1596E+02
  14.934  0.1699E+00  0.1596E+02
  14.944  0.1720E+00  0.1596E+02
  14.954  0.1731E+00  0.1596E+02
  14.964  0.1731E+00  0.1596E+02
  14.974  0.1721E+00  0.1597E+02
  14.984  0.1701E+00  0.1597E+02
  14.994  0.1670E+00  0.1597E+02
  15.004  0.1629E+00  0.1597E+02
  15.014  0.1578E+00  0.1597E+02
  15.024  0.1516E+00  0.1597E+02
  15.034  0.1443E+00  0.1598E+02
  15.044  0.1360E+00  0.1598E+02
  15.054  0.1267E+00  0.1598E+02
  15.064  0.1162E+00  0.1598E+02
  15.074  0.1047E+00  0.1598E+02
  15.084  0.9221E-01  0.1598E+02
  15.094  0.8476E-01  0.1598E+02
  15.104  0.7870E-01  0.1598E+02
  15.114  0.7233E-01  0.1598E+02
  15.124  0.6565E-01  0.1599E+02
  15.134  0.5866E-01  0.1599E+02
  15.144  0.5136E-01  0.1599E+02
  15.154  0.4376E-01  0.1599E+02
  15.164  0.4128E-01  0.1599E+02
  15.174  0.4036E-01  0.1599E+02
  15.184  0.3946E-01  0.1599E+02
  15.194  0.3857E-01  0.1599E+02
  15.204  0.3769E-01  0.1599E+02
  15.214  0.3682E-01  0.1599E+02
  15.224  0.3595E-01  0.1599E+02
  15.234  0.3510E-01  0.1599E+02
  15.244  0.3426E-01  0.1599E+02
  15.254  0.3343E-01  0.1599E+02
  15.264  0.3261E-01  0.1599E+02
  15.274  0.3180E-01  0.1599E+02
  15.284  0.3100E-01  0.1599E+02
  15.294  0.3021E-01  0.1599E+02
  15.304  0.2943E-01  0.1599E+02
  15.314  0.2866E-01  0.1599E+02
  15.324  0.2790E-01  0.1599E+02
  15.334  0.2715E-01  0.1599E+02
  15.344  0.2641E-01  0.1599E+02
  15.354  0.2568E-01  0.1599E+02
  15.364  0.2496E-01  0.1599E+02
  15.374  0.2426E-01  0.1599E+02
  15.384  0.2356E-01  0.1599E+02
  15.394  0.2287E-01  0.1599E+02
  15.404  0.2219E-01  0.1600E+02
  15.414  0.2152E-01  0.1600E+02
  15.424  0.2087E-01  0.1600E+02
  15.434  0.2022E-01  0.1600E+02
  15.444  0.1958E-01  0.1600E+02
  15.454  0.1895E-01  0.1600E+02
  15.464  0.1834E-01  0.1600E+02
  15.474  0.1773E-01  0.1600E+02
  15.484  0.1713E-01  0.1600E+02
  15.494  0.1655E-01  0.1600E+02
  15.504  0.1597E-01  0.1600E+02
  15.514  0.1541E-01  0.1600E+02
  15.524  0.1485E-01  0.1600E+02
  15.534  0.1431E-01  0.1600E+02
  15.544  0.1377E-01  0.1600E+02
  15.554  0.1325E-01  0.1600E+02
  15.564  0.1273E-01  0.1600E+02
  15.574  0.1223E-01  0.1600E+02
  15.584  0.1173E-01  0.1600E+02
  15.594  0.1125E-01  0.1600E+02
  15.604  0.1077E-01  0.1600E+02
  15.614  0.1031E-01  0.1600E+02
  15.624  0.9857E-02  0.1600E+02
  15.634  0.9414E-02  0.1600E+02
  15.644  0.8981E-02  0.1600E+02
  15.654  0.8558E-02  0.1600E+02
  15.664  0.8145E-02  0.1600E+02
  15.674  0.7743E-02  0.1600E+02
  15.684  0.7350E-02  0.1600E+02
  15.694  0.6968E-02  0.1600E+02
  15.704  0.6596E-02  0.1600E+02
  15.714  0.6235E-02  0.1600E+02
  15.724  0.5883E-02  0.1600E+02
  15.734  0.5542E-02  0.1600E+02
  15.744  0.5211E-02  0.1600E+02
  15.754  0.4890E-02  0.1600E+02
  15.764  0.4579E-02  0.1600E+02
  15.774  0.4278E-02  0.1600E+02
  15.784  0.3988E-02  0.1600E+02
  15.794  0.3708E-02  0.1600E+02
  15.804  0.3438E-02  0.1600E+02
  15.814  0.3178E-02  0.1600E+02
  15.824  0.2929E-02  0.1600E+02
  15.834  0.2690E-02  0.1600E+02
  15.844  0.2460E-02  0.1600E+02
  15.854  0.2241E-02  0.1600E+02
  15.864  0.2033E-02  0.1600E+02
  15.874  0.1834E-02  0.1600E+02
  15.884  0.1646E-02  0.1600E+02
  15.894  0.1468E-02  0.1600E+02
  15.904  0.1300E-02  0.1600E+02
  15.914  0.1142E-02  0.1600E+02
  15.924  0.9945E-03  0.1600E+02
  15.934  0.8572E-03  0.1600E+02
  15.944  0.7301E-03  0.1600E+02
  15.954  0.6131E-03  0.1600E+02
  15.964  0.5064E-03  0.1600E+02
  15.974  0.4099E-03  0.1600E+02
  15.984  0.3235E-03  0.1600E+02
  15.994  0.2474E-03  0.1600E+02
  16.004  0.1814E-03  0.1600E+02
  16.014  0.1257E-03  0.1600E+02
  16.024  0.8017E-04  0.1600E+02
  16.034  0.4483E-04  0.1600E+02
  16.044  0.1969E-04  0.1600E+02
  16.054  0.4748E-05  0.1600E+02
