# E (eV)   ldos(E)   pdos(E)    pdos(E)    pdos(E)   
  -5.876  0.000E+00  0.000E+00  0.000E+00  0.000E+00
  -5.866  0.363E-05  0.121E-05  0.121E-05  0.121E-05
  -5.856  0.291E-04  0.969E-05  0.969E-05  0.969E-05
  -5.846  0.981E-04  0.327E-04  0.327E-04  0.327E-04
  -5.836  0.232E-03  0.775E-04  0.775E-04  0.775E-04
  -5.826  0.454E-03  0.151E-03  0.151E-03  0.151E-03
  -5.816  0.785E-03  0.262E-03  0.262E-03  0.262E-03
  -5.806  0.125E-02  0.415E-03  0.415E-03  0.415E-03
  -5.796  0.186E-02  0.620E-03  0.620E-03  0.620E-03
  -5.786  0.265E-02  0.883E-03  0.883E-03  0.883E-03
  -5.776  0.273E-02  0.909E-03  0.909E-03  0.909E-03
  -5.766  0.280E-02  0.932E-03  0.932E-03  0.932E-03
  -5.756  0.301E-02  0.100E-02  0.100E-02  0.100E-02
  -5.746  0.337E-02  0.112E-02  0.112E-02  0.112E-02
  -5.736  0.374E-02  0.125E-02  0.125E-02  0.125E-02
  -5.726  0.414E-02  0.138E-02  0.138E-02  0.138E-02
  -5.716  0.456E-02  0.152E-02  0.152E-02  0.152E-02
  -5.706  0.500E-02  0.167E-02  0.167E-02  0.167E-02
  -5.696  0.546E-02  0.182E-02  0.182E-02  0.182E-02
  -5.686  0.595E-02  0.198E-02  0.198E-02  0.198E-02
  -5.676  0.646E-02  0.215E-02  0.215E-02  0.215E-02
  -5.666  0.699E-02  0.233E-02  0.233E-02  0.233E-02
  -5.656  0.755E-02  0.252E-02  0.252E-02  0.252E-02
  -5.646  0.813E-02  0.271E-02  0.271E-02  0.271E-02
  -5.636  0.874E-02  0.291E-02  0.291E-02  0.291E-02
  -5.626  0.936E-02  0.312E-02  0.312E-02  0.312E-02
  -5.616  0.996E-02  0.332E-02  0.332E-02  0.332E-02
  -5.606  0.105E-01  0.351E-02  0.351E-02  0.351E-02
  -5.596  0.111E-01  0.370E-02  0.370E-02  0.370E-02
  -5.586  0.116E-01  0.387E-02  0.387E-02  0.387E-02
  -5.576  0.121E-01  0.403E-02  0.403E-02  0.403E-02
  -5.566  0.125E-01  0.417E-02  0.417E-02  0.417E-02
  -5.556  0.129E-01  0.430E-02  0.430E-02  0.430E-02
  -5.546  0.132E-01  0.441E-02  0.441E-02  0.441E-02
  -5.536  0.136E-01  0.453E-02  0.453E-02  0.453E-02
  -5.526  0.140E-01  0.467E-02  0.467E-02  0.467E-02
  -5.516  0.145E-01  0.482E-02  0.482E-02  0.482E-02
  -5.506  0.150E-01  0.499E-02  0.499E-02  0.499E-02
  -5.496  0.155E-01  0.516E-02  0.516E-02  0.516E-02
  -5.486  0.160E-01  0.533E-02  0.533E-02  0.533E-02
  -5.476  0.165E-01  0.551E-02  0.551E-02  0.551E-02
  -5.466  0.171E-01  0.568E-02  0.568E-02  0.568E-02
  -5.456  0.176E-01  0.586E-02  0.586E-02  0.586E-02
  -5.446  0.181E-01  0.604E-02  0.604E-02  0.604E-02
  -5.436  0.187E-01  0.623E-02  0.623E-02  0.623E-02
  -5.426  0.192E-01  0.642E-02  0.642E-02  0.642E-02
  -5.416  0.198E-01  0.660E-02  0.660E-02  0.660E-02
  -5.406  0.204E-01  0.680E-02  0.680E-02  0.680E-02
  -5.396  0.210E-01  0.699E-02  0.699E-02  0.699E-02
  -5.386  0.216E-01  0.719E-02  0.719E-02  0.719E-02
  -5.376  0.222E-01  0.739E-02  0.739E-02  0.739E-02
  -5.366  0.228E-01  0.759E-02  0.759E-02  0.759E-02
  -5.356  0.234E-01  0.779E-02  0.779E-02  0.779E-02
  -5.346  0.240E-01  0.800E-02  0.800E-02  0.800E-02
  -5.336  0.246E-01  0.821E-02  0.821E-02  0.821E-02
  -5.326  0.253E-01  0.842E-02  0.842E-02  0.842E-02
  -5.316  0.259E-01  0.864E-02  0.864E-02  0.864E-02
  -5.306  0.266E-01  0.886E-02  0.886E-02  0.886E-02
  -5.296  0.269E-01  0.897E-02  0.897E-02  0.897E-02
  -5.286  0.273E-01  0.909E-02  0.909E-02  0.909E-02
  -5.276  0.277E-01  0.925E-02  0.925E-02  0.925E-02
  -5.266  0.282E-01  0.941E-02  0.941E-02  0.941E-02
  -5.256  0.287E-01  0.958E-02  0.958E-02  0.958E-02
  -5.246  0.292E-01  0.975E-02  0.975E-02  0.975E-02
  -5.236  0.297E-01  0.991E-02  0.991E-02  0.991E-02
  -5.226  0.302E-01  0.101E-01  0.101E-01  0.101E-01
  -5.216  0.307E-01  0.102E-01  0.102E-01  0.102E-01
  -5.206  0.312E-01  0.104E-01  0.104E-01  0.104E-01
  -5.196  0.317E-01  0.106E-01  0.106E-01  0.106E-01
  -5.186  0.322E-01  0.107E-01  0.107E-01  0.107E-01
  -5.176  0.327E-01  0.109E-01  0.109E-01  0.109E-01
  -5.166  0.331E-01  0.110E-01  0.110E-01  0.110E-01
  -5.156  0.336E-01  0.112E-01  0.112E-01  0.112E-01
  -5.146  0.341E-01  0.114E-01  0.114E-01  0.114E-01
  -5.136  0.346E-01  0.115E-01  0.115E-01  0.115E-01
  -5.126  0.351E-01  0.117E-01  0.117E-01  0.117E-01
  -5.116  0.356E-01  0.119E-01  0.119E-01  0.119E-01
  -5.106  0.361E-01  0.120E-01  0.120E-01  0.120E-01
  -5.096  0.366E-01  0.122E-01  0.122E-01  0.122E-01
  -5.086  0.371E-01  0.124E-01  0.124E-01  0.124E-01
  -5.076  0.376E-01  0.125E-01  0.125E-01  0.125E-01
  -5.066  0.381E-01  0.127E-01  0.127E-01  0.127E-01
  -5.056  0.386E-01  0.129E-01  0.129E-01  0.129E-01
  -5.046  0.392E-01  0.131E-01  0.131E-01  0.131E-01
  -5.036  0.397E-01  0.132E-01  0.132E-01  0.132E-01
  -5.026  0.403E-01  0.134E-01  0.134E-01  0.134E-01
  -5.016  0.408E-01  0.136E-01  0.136E-01  0.136E-01
  -5.006  0.414E-01  0.138E-01  0.138E-01  0.138E-01
  -4.996  0.420E-01  0.140E-01  0.140E-01  0.140E-01
  -4.986  0.425E-01  0.142E-01  0.142E-01  0.142E-01
  -4.976  0.431E-01  0.144E-01  0.144E-01  0.144E-01
  -4.966  0.437E-01  0.146E-01  0.146E-01  0.146E-01
  -4.956  0.442E-01  0.147E-01  0.147E-01  0.147E-01
  -4.946  0.448E-01  0.149E-01  0.149E-01  0.149E-01
  -4.936  0.454E-01  0.151E-01  0.151E-01  0.151E-01
  -4.926  0.460E-01  0.153E-01  0.153E-01  0.153E-01
  -4.916  0.465E-01  0.155E-01  0.155E-01  0.155E-01
  -4.906  0.471E-01  0.157E-01  0.157E-01  0.157E-01
  -4.896  0.476E-01  0.159E-01  0.159E-01  0.159E-01
  -4.886  0.481E-01  0.160E-01  0.160E-01  0.160E-01
  -4.876  0.486E-01  0.162E-01  0.162E-01  0.162E-01
  -4.866  0.490E-01  0.163E-01  0.163E-01  0.163E-01
  -4.856  0.495E-01  0.165E-01  0.165E-01  0.165E-01
  -4.846  0.499E-01  0.166E-01  0.166E-01  0.166E-01
  -4.836  0.502E-01  0.167E-01  0.167E-01  0.167E-01
  -4.826  0.507E-01  0.169E-01  0.169E-01  0.169E-01
  -4.816  0.511E-01  0.170E-01  0.170E-01  0.170E-01
  -4.806  0.516E-01  0.172E-01  0.172E-01  0.172E-01
  -4.796  0.521E-01  0.174E-01  0.174E-01  0.174E-01
  -4.786  0.525E-01  0.175E-01  0.175E-01  0.175E-01
  -4.776  0.530E-01  0.177E-01  0.177E-01  0.177E-01
  -4.766  0.535E-01  0.178E-01  0.178E-01  0.178E-01
  -4.756  0.540E-01  0.180E-01  0.180E-01  0.180E-01
  -4.746  0.544E-01  0.181E-01  0.181E-01  0.181E-01
  -4.736  0.549E-01  0.183E-01  0.183E-01  0.183E-01
  -4.726  0.554E-01  0.185E-01  0.185E-01  0.185E-01
  -4.716  0.558E-01  0.186E-01  0.186E-01  0.186E-01
  -4.706  0.563E-01  0.188E-01  0.188E-01  0.188E-01
  -4.696  0.568E-01  0.189E-01  0.189E-01  0.189E-01
  -4.686  0.573E-01  0.191E-01  0.191E-01  0.191E-01
  -4.676  0.577E-01  0.192E-01  0.192E-01  0.192E-01
  -4.666  0.582E-01  0.194E-01  0.194E-01  0.194E-01
  -4.656  0.587E-01  0.196E-01  0.196E-01  0.196E-01
  -4.646  0.592E-01  0.197E-01  0.197E-01  0.197E-01
  -4.636  0.596E-01  0.199E-01  0.199E-01  0.199E-01
  -4.626  0.601E-01  0.200E-01  0.200E-01  0.200E-01
  -4.616  0.606E-01  0.202E-01  0.202E-01  0.202E-01
  -4.606  0.611E-01  0.204E-01  0.204E-01  0.204E-01
  -4.596  0.616E-01  0.205E-01  0.205E-01  0.205E-01
  -4.586  0.621E-01  0.207E-01  0.207E-01  0.207E-01
  -4.576  0.626E-01  0.209E-01  0.209E-01  0.209E-01
  -4.566  0.631E-01  0.210E-01  0.210E-01  0.210E-01
  -4.556  0.636E-01  0.212E-01  0.212E-01  0.212E-01
  -4.546  0.641E-01  0.214E-01  0.214E-01  0.214E-01
  -4.536  0.646E-01  0.215E-01  0.215E-01  0.215E-01
  -4.526  0.651E-01  0.217E-01  0.217E-01  0.217E-01
  -4.516  0.656E-01  0.219E-01  0.219E-01  0.219E-01
  -4.506  0.662E-01  0.221E-01  0.221E-01  0.221E-01
  -4.496  0.667E-01  0.222E-01  0.222E-01  0.222E-01
  -4.486  0.672E-01  0.224E-01  0.224E-01  0.224E-01
  -4.476  0.677E-01  0.226E-01  0.226E-01  0.226E-01
  -4.466  0.682E-01  0.227E-01  0.227E-01  0.227E-01
  -4.456  0.688E-01  0.229E-01  0.229E-01  0.229E-01
  -4.446  0.693E-01  0.231E-01  0.231E-01  0.231E-01
  -4.436  0.698E-01  0.233E-01  0.233E-01  0.233E-01
  -4.426  0.703E-01  0.234E-01  0.234E-01  0.234E-01
  -4.416  0.709E-01  0.236E-01  0.236E-01  0.236E-01
  -4.406  0.714E-01  0.238E-01  0.238E-01  0.238E-01
  -4.396  0.719E-01  0.240E-01  0.240E-01  0.240E-01
  -4.386  0.724E-01  0.241E-01  0.241E-01  0.241E-01
  -4.376  0.728E-01  0.243E-01  0.243E-01  0.243E-01
  -4.366  0.733E-01  0.244E-01  0.244E-01  0.244E-01
  -4.356  0.737E-01  0.246E-01  0.246E-01  0.246E-01
  -4.346  0.742E-01  0.247E-01  0.247E-01  0.247E-01
  -4.336  0.747E-01  0.249E-01  0.249E-01  0.249E-01
  -4.326  0.751E-01  0.250E-01  0.250E-01  0.250E-01
  -4.316  0.756E-01  0.252E-01  0.252E-01  0.252E-01
  -4.306  0.761E-01  0.254E-01  0.254E-01  0.254E-01
  -4.296  0.765E-01  0.255E-01  0.255E-01  0.255E-01
  -4.286  0.770E-01  0.257E-01  0.257E-01  0.257E-01
  -4.276  0.775E-01  0.258E-01  0.258E-01  0.258E-01
  -4.266  0.780E-01  0.260E-01  0.260E-01  0.260E-01
  -4.256  0.784E-01  0.261E-01  0.261E-01  0.261E-01
  -4.246  0.789E-01  0.263E-01  0.263E-01  0.263E-01
  -4.236  0.794E-01  0.265E-01  0.265E-01  0.265E-01
  -4.226  0.799E-01  0.266E-01  0.266E-01  0.266E-01
  -4.216  0.803E-01  0.268E-01  0.268E-01  0.268E-01
  -4.206  0.809E-01  0.270E-01  0.270E-01  0.270E-01
  -4.196  0.814E-01  0.271E-01  0.271E-01  0.271E-01
  -4.186  0.819E-01  0.273E-01  0.273E-01  0.273E-01
  -4.176  0.824E-01  0.275E-01  0.275E-01  0.275E-01
  -4.166  0.829E-01  0.276E-01  0.276E-01  0.276E-01
  -4.156  0.834E-01  0.278E-01  0.278E-01  0.278E-01
  -4.146  0.839E-01  0.280E-01  0.280E-01  0.280E-01
  -4.136  0.845E-01  0.282E-01  0.282E-01  0.282E-01
  -4.126  0.850E-01  0.283E-01  0.283E-01  0.283E-01
  -4.116  0.855E-01  0.285E-01  0.285E-01  0.285E-01
  -4.106  0.861E-01  0.287E-01  0.287E-01  0.287E-01
  -4.096  0.866E-01  0.289E-01  0.289E-01  0.289E-01
  -4.086  0.871E-01  0.290E-01  0.290E-01  0.290E-01
  -4.076  0.877E-01  0.292E-01  0.292E-01  0.292E-01
  -4.066  0.882E-01  0.294E-01  0.294E-01  0.294E-01
  -4.056  0.888E-01  0.296E-01  0.296E-01  0.296E-01
  -4.046  0.893E-01  0.298E-01  0.298E-01  0.298E-01
  -4.036  0.899E-01  0.300E-01  0.300E-01  0.300E-01
  -4.026  0.904E-01  0.301E-01  0.301E-01  0.301E-01
  -4.016  0.910E-01  0.303E-01  0.303E-01  0.303E-01
  -4.006  0.915E-01  0.305E-01  0.305E-01  0.305E-01
  -3.996  0.921E-01  0.307E-01  0.307E-01  0.307E-01
  -3.986  0.926E-01  0.309E-01  0.309E-01  0.309E-01
  -3.976  0.932E-01  0.311E-01  0.311E-01  0.311E-01
  -3.966  0.938E-01  0.313E-01  0.313E-01  0.313E-01
  -3.956  0.944E-01  0.315E-01  0.315E-01  0.315E-01
  -3.946  0.950E-01  0.317E-01  0.317E-01  0.317E-01
  -3.936  0.956E-01  0.319E-01  0.319E-01  0.319E-01
  -3.926  0.962E-01  0.321E-01  0.321E-01  0.321E-01
  -3.916  0.968E-01  0.323E-01  0.323E-01  0.323E-01
  -3.906  0.975E-01  0.325E-01  0.325E-01  0.325E-01
  -3.896  0.981E-01  0.327E-01  0.327E-01  0.327E-01
  -3.886  0.987E-01  0.329E-01  0.329E-01  0.329E-01
  -3.876  0.994E-01  0.331E-01  0.331E-01  0.331E-01
  -3.866  0.100E+00  0.333E-01  0.333E-01  0.333E-01
  -3.856  0.101E+00  0.336E-01  0.336E-01  0.336E-01
  -3.846  0.101E+00  0.338E-01  0.338E-01  0.338E-01
  -3.836  0.102E+00  0.340E-01  0.340E-01  0.340E-01
  -3.826  0.103E+00  0.342E-01  0.342E-01  0.342E-01
  -3.816  0.103E+00  0.345E-01  0.345E-01  0.345E-01
  -3.806  0.104E+00  0.347E-01  0.347E-01  0.347E-01
  -3.796  0.105E+00  0.349E-01  0.349E-01  0.349E-01
  -3.786  0.105E+00  0.352E-01  0.352E-01  0.352E-01
  -3.776  0.106E+00  0.354E-01  0.354E-01  0.354E-01
  -3.766  0.107E+00  0.356E-01  0.356E-01  0.356E-01
  -3.756  0.108E+00  0.359E-01  0.359E-01  0.359E-01
  -3.746  0.108E+00  0.362E-01  0.362E-01  0.362E-01
  -3.736  0.109E+00  0.364E-01  0.364E-01  0.364E-01
  -3.726  0.110E+00  0.367E-01  0.367E-01  0.367E-01
  -3.716  0.111E+00  0.370E-01  0.370E-01  0.370E-01
  -3.706  0.112E+00  0.373E-01  0.373E-01  0.373E-01
  -3.696  0.113E+00  0.376E-01  0.376E-01  0.376E-01
  -3.686  0.114E+00  0.379E-01  0.379E-01  0.379E-01
  -3.676  0.115E+00  0.382E-01  0.382E-01  0.382E-01
  -3.666  0.116E+00  0.386E-01  0.386E-01  0.386E-01
  -3.656  0.117E+00  0.389E-01  0.389E-01  0.389E-01
  -3.646  0.118E+00  0.392E-01  0.392E-01  0.392E-01
  -3.636  0.119E+00  0.395E-01  0.395E-01  0.395E-01
  -3.626  0.120E+00  0.399E-01  0.399E-01  0.399E-01
  -3.616  0.121E+00  0.404E-01  0.404E-01  0.404E-01
  -3.606  0.123E+00  0.410E-01  0.410E-01  0.410E-01
  -3.596  0.125E+00  0.418E-01  0.418E-01  0.418E-01
  -3.586  0.128E+00  0.427E-01  0.427E-01  0.427E-01
  -3.576  0.131E+00  0.437E-01  0.437E-01  0.437E-01
  -3.566  0.135E+00  0.449E-01  0.449E-01  0.449E-01
  -3.556  0.139E+00  0.462E-01  0.462E-01  0.462E-01
  -3.546  0.143E+00  0.477E-01  0.477E-01  0.477E-01
  -3.536  0.148E+00  0.493E-01  0.493E-01  0.493E-01
  -3.526  0.152E+00  0.508E-01  0.508E-01  0.508E-01
  -3.516  0.153E+00  0.510E-01  0.510E-01  0.510E-01
  -3.506  0.149E+00  0.497E-01  0.497E-01  0.497E-01
  -3.496  0.140E+00  0.468E-01  0.468E-01  0.468E-01
  -3.486  0.138E+00  0.459E-01  0.459E-01  0.459E-01
  -3.476  0.138E+00  0.459E-01  0.459E-01  0.459E-01
  -3.466  0.138E+00  0.459E-01  0.459E-01  0.459E-01
  -3.456  0.138E+00  0.459E-01  0.459E-01  0.459E-01
  -3.446  0.138E+00  0.460E-01  0.460E-01  0.460E-01
  -3.436  0.138E+00  0.460E-01  0.460E-01  0.460E-01
  -3.426  0.138E+00  0.460E-01  0.460E-01  0.460E-01
  -3.416  0.138E+00  0.461E-01  0.461E-01  0.461E-01
  -3.406  0.138E+00  0.461E-01  0.461E-01  0.461E-01
  -3.396  0.139E+00  0.462E-01  0.462E-01  0.462E-01
  -3.386  0.139E+00  0.463E-01  0.463E-01  0.463E-01
  -3.376  0.139E+00  0.463E-01  0.463E-01  0.463E-01
  -3.366  0.139E+00  0.464E-01  0.464E-01  0.464E-01
  -3.356  0.139E+00  0.464E-01  0.464E-01  0.464E-01
  -3.346  0.139E+00  0.462E-01  0.462E-01  0.462E-01
  -3.336  0.138E+00  0.461E-01  0.461E-01  0.461E-01
  -3.326  0.137E+00  0.458E-01  0.458E-01  0.458E-01
  -3.316  0.136E+00  0.455E-01  0.455E-01  0.455E-01
  -3.306  0.135E+00  0.451E-01  0.451E-01  0.451E-01
  -3.296  0.134E+00  0.446E-01  0.446E-01  0.446E-01
  -3.286  0.132E+00  0.441E-01  0.441E-01  0.441E-01
  -3.276  0.131E+00  0.437E-01  0.437E-01  0.437E-01
  -3.266  0.131E+00  0.436E-01  0.436E-01  0.436E-01
  -3.256  0.131E+00  0.437E-01  0.437E-01  0.437E-01
  -3.246  0.132E+00  0.439E-01  0.439E-01  0.439E-01
  -3.236  0.132E+00  0.442E-01  0.442E-01  0.442E-01
  -3.226  0.133E+00  0.444E-01  0.444E-01  0.444E-01
  -3.216  0.134E+00  0.446E-01  0.446E-01  0.446E-01
  -3.206  0.134E+00  0.448E-01  0.448E-01  0.448E-01
  -3.196  0.135E+00  0.450E-01  0.450E-01  0.450E-01
  -3.186  0.136E+00  0.452E-01  0.452E-01  0.452E-01
  -3.176  0.136E+00  0.453E-01  0.453E-01  0.453E-01
  -3.166  0.136E+00  0.454E-01  0.454E-01  0.454E-01
  -3.156  0.136E+00  0.454E-01  0.454E-01  0.454E-01
  -3.146  0.136E+00  0.453E-01  0.453E-01  0.453E-01
  -3.136  0.136E+00  0.452E-01  0.452E-01  0.452E-01
  -3.126  0.135E+00  0.451E-01  0.451E-01  0.451E-01
  -3.116  0.135E+00  0.449E-01  0.449E-01  0.449E-01
  -3.106  0.134E+00  0.447E-01  0.447E-01  0.447E-01
  -3.096  0.134E+00  0.445E-01  0.445E-01  0.445E-01
  -3.086  0.133E+00  0.443E-01  0.443E-01  0.443E-01
  -3.076  0.132E+00  0.440E-01  0.440E-01  0.440E-01
  -3.066  0.131E+00  0.438E-01  0.438E-01  0.438E-01
  -3.056  0.130E+00  0.435E-01  0.435E-01  0.435E-01
  -3.046  0.129E+00  0.431E-01  0.431E-01  0.431E-01
  -3.036  0.128E+00  0.428E-01  0.428E-01  0.428E-01
  -3.026  0.127E+00  0.424E-01  0.424E-01  0.424E-01
  -3.016  0.126E+00  0.420E-01  0.420E-01  0.420E-01
  -3.006  0.126E+00  0.419E-01  0.419E-01  0.419E-01
  -2.996  0.125E+00  0.418E-01  0.418E-01  0.418E-01
  -2.986  0.125E+00  0.416E-01  0.416E-01  0.416E-01
  -2.976  0.124E+00  0.415E-01  0.415E-01  0.415E-01
  -2.966  0.124E+00  0.414E-01  0.414E-01  0.414E-01
  -2.956  0.124E+00  0.412E-01  0.412E-01  0.412E-01
  -2.946  0.123E+00  0.411E-01  0.411E-01  0.411E-01
  -2.936  0.123E+00  0.409E-01  0.409E-01  0.409E-01
  -2.926  0.122E+00  0.408E-01  0.408E-01  0.408E-01
  -2.916  0.122E+00  0.407E-01  0.407E-01  0.407E-01
  -2.906  0.122E+00  0.406E-01  0.406E-01  0.406E-01
  -2.896  0.121E+00  0.405E-01  0.405E-01  0.405E-01
  -2.886  0.121E+00  0.403E-01  0.403E-01  0.403E-01
  -2.876  0.121E+00  0.402E-01  0.402E-01  0.402E-01
  -2.866  0.120E+00  0.401E-01  0.401E-01  0.401E-01
  -2.856  0.120E+00  0.400E-01  0.400E-01  0.400E-01
  -2.846  0.120E+00  0.400E-01  0.400E-01  0.400E-01
  -2.836  0.120E+00  0.399E-01  0.399E-01  0.399E-01
  -2.826  0.119E+00  0.398E-01  0.398E-01  0.398E-01
  -2.816  0.119E+00  0.397E-01  0.397E-01  0.397E-01
  -2.806  0.119E+00  0.397E-01  0.397E-01  0.397E-01
  -2.796  0.119E+00  0.396E-01  0.396E-01  0.396E-01
  -2.786  0.118E+00  0.395E-01  0.395E-01  0.395E-01
  -2.776  0.118E+00  0.394E-01  0.394E-01  0.394E-01
  -2.766  0.118E+00  0.393E-01  0.393E-01  0.393E-01
  -2.756  0.118E+00  0.392E-01  0.392E-01  0.392E-01
  -2.746  0.117E+00  0.391E-01  0.391E-01  0.391E-01
  -2.736  0.117E+00  0.389E-01  0.389E-01  0.389E-01
  -2.726  0.116E+00  0.388E-01  0.388E-01  0.388E-01
  -2.716  0.116E+00  0.387E-01  0.387E-01  0.387E-01
  -2.706  0.116E+00  0.385E-01  0.385E-01  0.385E-01
  -2.696  0.115E+00  0.384E-01  0.384E-01  0.384E-01
  -2.686  0.115E+00  0.382E-01  0.382E-01  0.382E-01
  -2.676  0.114E+00  0.380E-01  0.380E-01  0.380E-01
  -2.666  0.114E+00  0.378E-01  0.378E-01  0.378E-01
  -2.656  0.113E+00  0.376E-01  0.376E-01  0.376E-01
  -2.646  0.112E+00  0.374E-01  0.374E-01  0.374E-01
  -2.636  0.112E+00  0.372E-01  0.372E-01  0.372E-01
  -2.626  0.111E+00  0.369E-01  0.369E-01  0.369E-01
  -2.616  0.110E+00  0.366E-01  0.366E-01  0.366E-01
  -2.606  0.109E+00  0.363E-01  0.363E-01  0.363E-01
  -2.596  0.108E+00  0.360E-01  0.360E-01  0.360E-01
  -2.586  0.107E+00  0.358E-01  0.358E-01  0.358E-01
  -2.576  0.107E+00  0.356E-01  0.356E-01  0.356E-01
  -2.566  0.107E+00  0.355E-01  0.355E-01  0.355E-01
  -2.556  0.106E+00  0.354E-01  0.354E-01  0.354E-01
  -2.546  0.106E+00  0.353E-01  0.353E-01  0.353E-01
  -2.536  0.105E+00  0.351E-01  0.351E-01  0.351E-01
  -2.526  0.105E+00  0.350E-01  0.350E-01  0.350E-01
  -2.516  0.105E+00  0.349E-01  0.349E-01  0.349E-01
  -2.506  0.104E+00  0.347E-01  0.347E-01  0.347E-01
  -2.496  0.104E+00  0.346E-01  0.346E-01  0.346E-01
  -2.486  0.103E+00  0.345E-01  0.345E-01  0.345E-01
  -2.476  0.103E+00  0.343E-01  0.343E-01  0.343E-01
  -2.466  0.103E+00  0.342E-01  0.342E-01  0.342E-01
  -2.456  0.102E+00  0.341E-01  0.341E-01  0.341E-01
  -2.446  0.102E+00  0.339E-01  0.339E-01  0.339E-01
  -2.436  0.101E+00  0.338E-01  0.338E-01  0.338E-01
  -2.426  0.101E+00  0.336E-01  0.336E-01  0.336E-01
  -2.416  0.100E+00  0.335E-01  0.335E-01  0.335E-01
  -2.406  0.100E+00  0.333E-01  0.333E-01  0.333E-01
  -2.396  0.995E-01  0.332E-01  0.332E-01  0.332E-01
  -2.386  0.991E-01  0.330E-01  0.330E-01  0.330E-01
  -2.376  0.986E-01  0.329E-01  0.329E-01  0.329E-01
  -2.366  0.981E-01  0.327E-01  0.327E-01  0.327E-01
  -2.356  0.977E-01  0.326E-01  0.326E-01  0.326E-01
  -2.346  0.972E-01  0.324E-01  0.324E-01  0.324E-01
  -2.336  0.967E-01  0.322E-01  0.322E-01  0.322E-01
  -2.326  0.962E-01  0.321E-01  0.321E-01  0.321E-01
  -2.316  0.958E-01  0.319E-01  0.319E-01  0.319E-01
  -2.306  0.954E-01  0.318E-01  0.318E-01  0.318E-01
  -2.296  0.949E-01  0.316E-01  0.316E-01  0.316E-01
  -2.286  0.944E-01  0.315E-01  0.315E-01  0.315E-01
  -2.276  0.939E-01  0.313E-01  0.313E-01  0.313E-01
  -2.266  0.934E-01  0.311E-01  0.311E-01  0.311E-01
  -2.256  0.929E-01  0.310E-01  0.310E-01  0.310E-01
  -2.246  0.923E-01  0.308E-01  0.308E-01  0.308E-01
  -2.236  0.917E-01  0.306E-01  0.306E-01  0.306E-01
  -2.226  0.920E-01  0.307E-01  0.307E-01  0.307E-01
  -2.216  0.931E-01  0.310E-01  0.310E-01  0.310E-01
  -2.206  0.940E-01  0.313E-01  0.313E-01  0.313E-01
  -2.196  0.946E-01  0.315E-01  0.315E-01  0.315E-01
  -2.186  0.950E-01  0.317E-01  0.317E-01  0.317E-01
  -2.176  0.952E-01  0.317E-01  0.317E-01  0.317E-01
  -2.166  0.951E-01  0.317E-01  0.317E-01  0.317E-01
  -2.156  0.948E-01  0.316E-01  0.316E-01  0.316E-01
  -2.146  0.943E-01  0.314E-01  0.314E-01  0.314E-01
  -2.136  0.935E-01  0.312E-01  0.312E-01  0.312E-01
  -2.126  0.925E-01  0.308E-01  0.308E-01  0.308E-01
  -2.116  0.908E-01  0.303E-01  0.303E-01  0.303E-01
  -2.106  0.871E-01  0.290E-01  0.290E-01  0.290E-01
  -2.096  0.837E-01  0.279E-01  0.279E-01  0.279E-01
  -2.086  0.805E-01  0.268E-01  0.268E-01  0.268E-01
  -2.076  0.777E-01  0.259E-01  0.259E-01  0.259E-01
  -2.066  0.752E-01  0.251E-01  0.251E-01  0.251E-01
  -2.056  0.727E-01  0.242E-01  0.242E-01  0.242E-01
  -2.046  0.703E-01  0.234E-01  0.234E-01  0.234E-01
  -2.036  0.679E-01  0.226E-01  0.226E-01  0.226E-01
  -2.026  0.656E-01  0.219E-01  0.219E-01  0.219E-01
  -2.016  0.632E-01  0.211E-01  0.211E-01  0.211E-01
  -2.006  0.609E-01  0.203E-01  0.203E-01  0.203E-01
  -1.996  0.586E-01  0.195E-01  0.195E-01  0.195E-01
  -1.986  0.564E-01  0.188E-01  0.188E-01  0.188E-01
  -1.976  0.542E-01  0.181E-01  0.181E-01  0.181E-01
  -1.966  0.520E-01  0.173E-01  0.173E-01  0.173E-01
  -1.956  0.499E-01  0.166E-01  0.166E-01  0.166E-01
  -1.946  0.477E-01  0.159E-01  0.159E-01  0.159E-01
  -1.936  0.457E-01  0.152E-01  0.152E-01  0.152E-01
  -1.926  0.436E-01  0.145E-01  0.145E-01  0.145E-01
  -1.916  0.416E-01  0.139E-01  0.139E-01  0.139E-01
  -1.906  0.396E-01  0.132E-01  0.132E-01  0.132E-01
  -1.896  0.377E-01  0.126E-01  0.126E-01  0.126E-01
  -1.886  0.358E-01  0.119E-01  0.119E-01  0.119E-01
  -1.876  0.339E-01  0.113E-01  0.113E-01  0.113E-01
  -1.866  0.321E-01  0.107E-01  0.107E-01  0.107E-01
  -1.856  0.303E-01  0.101E-01  0.101E-01  0.101E-01
  -1.846  0.285E-01  0.950E-02  0.950E-02  0.950E-02
  -1.836  0.268E-01  0.892E-02  0.892E-02  0.892E-02
  -1.826  0.251E-01  0.835E-02  0.835E-02  0.835E-02
  -1.816  0.234E-01  0.780E-02  0.780E-02  0.780E-02
  -1.806  0.218E-01  0.725E-02  0.725E-02  0.725E-02
  -1.796  0.202E-01  0.672E-02  0.672E-02  0.672E-02
  -1.786  0.186E-01  0.620E-02  0.620E-02  0.620E-02
  -1.776  0.171E-01  0.570E-02  0.570E-02  0.570E-02
  -1.766  0.156E-01  0.520E-02  0.520E-02  0.520E-02
  -1.756  0.142E-01  0.472E-02  0.472E-02  0.472E-02
  -1.746  0.128E-01  0.425E-02  0.425E-02  0.425E-02
  -1.736  0.114E-01  0.379E-02  0.379E-02  0.379E-02
  -1.726  0.101E-01  0.335E-02  0.335E-02  0.335E-02
  -1.716  0.889E-02  0.296E-02  0.296E-02  0.296E-02
  -1.706  0.792E-02  0.264E-02  0.264E-02  0.264E-02
  -1.696  0.714E-02  0.238E-02  0.238E-02  0.238E-02
  -1.686  0.656E-02  0.219E-02  0.219E-02  0.219E-02
  -1.676  0.610E-02  0.203E-02  0.203E-02  0.203E-02
  -1.666  0.575E-02  0.192E-02  0.192E-02  0.192E-02
  -1.656  0.550E-02  0.183E-02  0.183E-02  0.183E-02
  -1.646  0.537E-02  0.179E-02  0.179E-02  0.179E-02
  -1.636  0.535E-02  0.178E-02  0.178E-02  0.178E-02
  -1.626  0.543E-02  0.181E-02  0.181E-02  0.181E-02
  -1.616  0.562E-02  0.187E-02  0.187E-02  0.187E-02
  -1.606  0.593E-02  0.198E-02  0.198E-02  0.198E-02
  -1.596  0.637E-02  0.212E-02  0.212E-02  0.212E-02
  -1.586  0.704E-02  0.235E-02  0.235E-02  0.235E-02
  -1.576  0.792E-02  0.264E-02  0.264E-02  0.264E-02
  -1.566  0.901E-02  0.300E-02  0.300E-02  0.300E-02
  -1.556  0.103E-01  0.344E-02  0.344E-02  0.344E-02
  -1.546  0.117E-01  0.390E-02  0.390E-02  0.390E-02
  -1.536  0.131E-01  0.437E-02  0.437E-02  0.437E-02
  -1.526  0.146E-01  0.485E-02  0.485E-02  0.485E-02
  -1.516  0.161E-01  0.535E-02  0.535E-02  0.535E-02
  -1.506  0.176E-01  0.586E-02  0.586E-02  0.586E-02
  -1.496  0.192E-01  0.639E-02  0.639E-02  0.639E-02
  -1.486  0.208E-01  0.692E-02  0.692E-02  0.692E-02
  -1.476  0.224E-01  0.748E-02  0.748E-02  0.748E-02
  -1.466  0.241E-01  0.804E-02  0.804E-02  0.804E-02
  -1.456  0.258E-01  0.861E-02  0.861E-02  0.861E-02
  -1.446  0.276E-01  0.920E-02  0.920E-02  0.920E-02
  -1.436  0.294E-01  0.979E-02  0.979E-02  0.979E-02
  -1.426  0.312E-01  0.104E-01  0.104E-01  0.104E-01
  -1.416  0.330E-01  0.110E-01  0.110E-01  0.110E-01
  -1.406  0.349E-01  0.116E-01  0.116E-01  0.116E-01
  -1.396  0.368E-01  0.123E-01  0.123E-01  0.123E-01
  -1.386  0.387E-01  0.129E-01  0.129E-01  0.129E-01
  -1.376  0.406E-01  0.135E-01  0.135E-01  0.135E-01
  -1.366  0.426E-01  0.142E-01  0.142E-01  0.142E-01
  -1.356  0.446E-01  0.149E-01  0.149E-01  0.149E-01
  -1.346  0.467E-01  0.156E-01  0.156E-01  0.156E-01
  -1.336  0.487E-01  0.162E-01  0.162E-01  0.162E-01
  -1.326  0.508E-01  0.169E-01  0.169E-01  0.169E-01
  -1.316  0.529E-01  0.176E-01  0.176E-01  0.176E-01
  -1.306  0.551E-01  0.184E-01  0.184E-01  0.184E-01
  -1.296  0.573E-01  0.191E-01  0.191E-01  0.191E-01
  -1.286  0.595E-01  0.198E-01  0.198E-01  0.198E-01
  -1.276  0.617E-01  0.206E-01  0.206E-01  0.206E-01
  -1.266  0.640E-01  0.213E-01  0.213E-01  0.213E-01
  -1.256  0.663E-01  0.221E-01  0.221E-01  0.221E-01
  -1.246  0.686E-01  0.229E-01  0.229E-01  0.229E-01
  -1.236  0.710E-01  0.237E-01  0.237E-01  0.237E-01
  -1.226  0.734E-01  0.245E-01  0.245E-01  0.245E-01
  -1.216  0.758E-01  0.253E-01  0.253E-01  0.253E-01
  -1.206  0.783E-01  0.261E-01  0.261E-01  0.261E-01
  -1.196  0.808E-01  0.269E-01  0.269E-01  0.269E-01
  -1.186  0.833E-01  0.278E-01  0.278E-01  0.278E-01
  -1.176  0.859E-01  0.286E-01  0.286E-01  0.286E-01
  -1.166  0.884E-01  0.295E-01  0.295E-01  0.295E-01
  -1.156  0.910E-01  0.303E-01  0.303E-01  0.303E-01
  -1.146  0.933E-01  0.311E-01  0.311E-01  0.311E-01
  -1.136  0.956E-01  0.319E-01  0.319E-01  0.319E-01
  -1.126  0.977E-01  0.326E-01  0.326E-01  0.326E-01
  -1.116  0.997E-01  0.332E-01  0.332E-01  0.332E-01
  -1.106  0.102E+00  0.339E-01  0.339E-01  0.339E-01
  -1.096  0.103E+00  0.345E-01  0.345E-01  0.345E-01
  -1.086  0.105E+00  0.350E-01  0.350E-01  0.350E-01
  -1.076  0.107E+00  0.355E-01  0.355E-01  0.355E-01
  -1.066  0.108E+00  0.360E-01  0.360E-01  0.360E-01
  -1.056  0.109E+00  0.364E-01  0.364E-01  0.364E-01
  -1.046  0.111E+00  0.369E-01  0.369E-01  0.369E-01
  -1.036  0.113E+00  0.378E-01  0.378E-01  0.378E-01
  -1.026  0.116E+00  0.386E-01  0.386E-01  0.386E-01
  -1.016  0.118E+00  0.395E-01  0.395E-01  0.395E-01
  -1.006  0.121E+00  0.403E-01  0.403E-01  0.403E-01
  -0.996  0.123E+00  0.411E-01  0.411E-01  0.411E-01
  -0.986  0.126E+00  0.420E-01  0.420E-01  0.420E-01
  -0.976  0.128E+00  0.428E-01  0.428E-01  0.428E-01
  -0.966  0.131E+00  0.435E-01  0.435E-01  0.435E-01
  -0.956  0.133E+00  0.442E-01  0.442E-01  0.442E-01
  -0.946  0.135E+00  0.449E-01  0.449E-01  0.449E-01
  -0.936  0.137E+00  0.457E-01  0.457E-01  0.457E-01
  -0.926  0.139E+00  0.464E-01  0.464E-01  0.464E-01
  -0.916  0.142E+00  0.473E-01  0.473E-01  0.473E-01
  -0.906  0.146E+00  0.485E-01  0.485E-01  0.485E-01
  -0.896  0.150E+00  0.500E-01  0.500E-01  0.500E-01
  -0.886  0.155E+00  0.518E-01  0.518E-01  0.518E-01
  -0.876  0.161E+00  0.538E-01  0.538E-01  0.538E-01
  -0.866  0.168E+00  0.561E-01  0.561E-01  0.561E-01
  -0.856  0.176E+00  0.587E-01  0.587E-01  0.587E-01
  -0.846  0.185E+00  0.616E-01  0.616E-01  0.616E-01
  -0.836  0.194E+00  0.648E-01  0.648E-01  0.648E-01
  -0.826  0.205E+00  0.683E-01  0.683E-01  0.683E-01
  -0.816  0.235E+00  0.784E-01  0.784E-01  0.784E-01
  -0.806  0.280E+00  0.933E-01  0.933E-01  0.933E-01
  -0.796  0.294E+00  0.981E-01  0.981E-01  0.981E-01
  -0.786  0.308E+00  0.103E+00  0.103E+00  0.103E+00
  -0.776  0.321E+00  0.107E+00  0.107E+00  0.107E+00
  -0.766  0.333E+00  0.111E+00  0.111E+00  0.111E+00
  -0.756  0.346E+00  0.115E+00  0.115E+00  0.115E+00
  -0.746  0.364E+00  0.121E+00  0.121E+00  0.121E+00
  -0.736  0.388E+00  0.129E+00  0.129E+00  0.129E+00
  -0.726  0.420E+00  0.140E+00  0.140E+00  0.140E+00
  -0.716  0.485E+00  0.162E+00  0.162E+00  0.162E+00
  -0.706  0.550E+00  0.183E+00  0.183E+00  0.183E+00
  -0.696  0.593E+00  0.198E+00  0.198E+00  0.198E+00
  -0.686  0.608E+00  0.203E+00  0.203E+00  0.203E+00
  -0.676  0.595E+00  0.198E+00  0.198E+00  0.198E+00
  -0.666  0.549E+00  0.183E+00  0.183E+00  0.183E+00
  -0.656  0.505E+00  0.168E+00  0.168E+00  0.168E+00
  -0.646  0.483E+00  0.161E+00  0.161E+00  0.161E+00
  -0.636  0.463E+00  0.154E+00  0.154E+00  0.154E+00
  -0.626  0.445E+00  0.148E+00  0.148E+00  0.148E+00
  -0.616  0.427E+00  0.142E+00  0.142E+00  0.142E+00
  -0.606  0.411E+00  0.137E+00  0.137E+00  0.137E+00
  -0.596  0.396E+00  0.132E+00  0.132E+00  0.132E+00
  -0.586  0.382E+00  0.127E+00  0.127E+00  0.127E+00
  -0.576  0.369E+00  0.123E+00  0.123E+00  0.123E+00
  -0.566  0.357E+00  0.119E+00  0.119E+00  0.119E+00
  -0.556  0.347E+00  0.116E+00  0.116E+00  0.116E+00
  -0.546  0.337E+00  0.112E+00  0.112E+00  0.112E+00
  -0.536  0.328E+00  0.109E+00  0.109E+00  0.109E+00
  -0.526  0.320E+00  0.107E+00  0.107E+00  0.107E+00
  -0.516  0.312E+00  0.104E+00  0.104E+00  0.104E+00
  -0.506  0.305E+00  0.102E+00  0.102E+00  0.102E+00
  -0.496  0.299E+00  0.996E-01  0.996E-01  0.996E-01
  -0.486  0.293E+00  0.976E-01  0.976E-01  0.976E-01
  -0.476  0.288E+00  0.958E-01  0.958E-01  0.958E-01
  -0.466  0.282E+00  0.941E-01  0.941E-01  0.941E-01
  -0.456  0.277E+00  0.925E-01  0.925E-01  0.925E-01
  -0.446  0.273E+00  0.909E-01  0.909E-01  0.909E-01
  -0.436  0.268E+00  0.894E-01  0.894E-01  0.894E-01
  -0.426  0.264E+00  0.879E-01  0.879E-01  0.879E-01
  -0.416  0.259E+00  0.864E-01  0.864E-01  0.864E-01
  -0.406  0.255E+00  0.851E-01  0.851E-01  0.851E-01
  -0.396  0.251E+00  0.838E-01  0.838E-01  0.838E-01
  -0.386  0.247E+00  0.825E-01  0.825E-01  0.825E-01
  -0.376  0.244E+00  0.813E-01  0.813E-01  0.813E-01
  -0.366  0.240E+00  0.801E-01  0.801E-01  0.801E-01
  -0.356  0.237E+00  0.790E-01  0.790E-01  0.790E-01
  -0.346  0.234E+00  0.779E-01  0.779E-01  0.779E-01
  -0.336  0.231E+00  0.769E-01  0.769E-01  0.769E-01
  -0.326  0.228E+00  0.760E-01  0.760E-01  0.760E-01
  -0.316  0.225E+00  0.751E-01  0.751E-01  0.751E-01
  -0.306  0.223E+00  0.742E-01  0.742E-01  0.742E-01
  -0.296  0.220E+00  0.733E-01  0.733E-01  0.733E-01
  -0.286  0.218E+00  0.725E-01  0.725E-01  0.725E-01
  -0.276  0.215E+00  0.717E-01  0.717E-01  0.717E-01
  -0.266  0.213E+00  0.709E-01  0.709E-01  0.709E-01
  -0.256  0.210E+00  0.702E-01  0.702E-01  0.702E-01
  -0.246  0.208E+00  0.694E-01  0.694E-01  0.694E-01
  -0.236  0.206E+00  0.687E-01  0.687E-01  0.687E-01
  -0.226  0.204E+00  0.679E-01  0.679E-01  0.679E-01
  -0.216  0.201E+00  0.669E-01  0.669E-01  0.669E-01
  -0.206  0.198E+00  0.661E-01  0.661E-01  0.661E-01
  -0.196  0.196E+00  0.652E-01  0.652E-01  0.652E-01
  -0.186  0.193E+00  0.645E-01  0.645E-01  0.645E-01
  -0.176  0.191E+00  0.638E-01  0.638E-01  0.638E-01
  -0.166  0.189E+00  0.631E-01  0.631E-01  0.631E-01
  -0.156  0.188E+00  0.625E-01  0.625E-01  0.625E-01
  -0.146  0.186E+00  0.620E-01  0.620E-01  0.620E-01
  -0.136  0.185E+00  0.615E-01  0.615E-01  0.615E-01
  -0.126  0.183E+00  0.611E-01  0.611E-01  0.611E-01
  -0.116  0.182E+00  0.607E-01  0.607E-01  0.607E-01
  -0.106  0.181E+00  0.603E-01  0.603E-01  0.603E-01
  -0.096  0.180E+00  0.599E-01  0.599E-01  0.599E-01
  -0.086  0.178E+00  0.595E-01  0.595E-01  0.595E-01
  -0.076  0.177E+00  0.591E-01  0.591E-01  0.591E-01
  -0.066  0.176E+00  0.587E-01  0.587E-01  0.587E-01
  -0.056  0.175E+00  0.583E-01  0.583E-01  0.583E-01
  -0.046  0.174E+00  0.579E-01  0.579E-01  0.579E-01
  -0.036  0.173E+00  0.575E-01  0.575E-01  0.575E-01
  -0.026  0.172E+00  0.572E-01  0.572E-01  0.572E-01
  -0.016  0.170E+00  0.568E-01  0.568E-01  0.568E-01
  -0.006  0.169E+00  0.565E-01  0.565E-01  0.565E-01
   0.004  0.168E+00  0.561E-01  0.561E-01  0.561E-01
   0.014  0.167E+00  0.558E-01  0.558E-01  0.558E-01
   0.024  0.166E+00  0.554E-01  0.554E-01  0.554E-01
   0.034  0.165E+00  0.551E-01  0.551E-01  0.551E-01
   0.044  0.164E+00  0.548E-01  0.548E-01  0.548E-01
   0.054  0.163E+00  0.544E-01  0.544E-01  0.544E-01
   0.064  0.162E+00  0.541E-01  0.541E-01  0.541E-01
   0.074  0.161E+00  0.538E-01  0.538E-01  0.538E-01
   0.084  0.160E+00  0.535E-01  0.535E-01  0.535E-01
   0.094  0.159E+00  0.531E-01  0.531E-01  0.531E-01
   0.104  0.158E+00  0.528E-01  0.528E-01  0.528E-01
   0.114  0.157E+00  0.525E-01  0.525E-01  0.525E-01
   0.124  0.157E+00  0.522E-01  0.522E-01  0.522E-01
   0.134  0.156E+00  0.519E-01  0.519E-01  0.519E-01
   0.144  0.155E+00  0.515E-01  0.515E-01  0.515E-01
   0.154  0.154E+00  0.512E-01  0.512E-01  0.512E-01
   0.164  0.153E+00  0.509E-01  0.509E-01  0.509E-01
   0.174  0.152E+00  0.506E-01  0.506E-01  0.506E-01
   0.184  0.151E+00  0.503E-01  0.503E-01  0.503E-01
   0.194  0.150E+00  0.500E-01  0.500E-01  0.500E-01
   0.204  0.149E+00  0.497E-01  0.497E-01  0.497E-01
   0.214  0.148E+00  0.494E-01  0.494E-01  0.494E-01
   0.224  0.147E+00  0.491E-01  0.491E-01  0.491E-01
   0.234  0.146E+00  0.488E-01  0.488E-01  0.488E-01
   0.244  0.145E+00  0.485E-01  0.485E-01  0.485E-01
   0.254  0.145E+00  0.482E-01  0.482E-01  0.482E-01
   0.264  0.144E+00  0.479E-01  0.479E-01  0.479E-01
   0.274  0.143E+00  0.476E-01  0.476E-01  0.476E-01
   0.284  0.142E+00  0.473E-01  0.473E-01  0.473E-01
   0.294  0.141E+00  0.470E-01  0.470E-01  0.470E-01
   0.304  0.140E+00  0.467E-01  0.467E-01  0.467E-01
   0.314  0.139E+00  0.464E-01  0.464E-01  0.464E-01
   0.324  0.138E+00  0.462E-01  0.462E-01  0.462E-01
   0.334  0.138E+00  0.459E-01  0.459E-01  0.459E-01
   0.344  0.137E+00  0.456E-01  0.456E-01  0.456E-01
   0.354  0.136E+00  0.453E-01  0.453E-01  0.453E-01
   0.364  0.135E+00  0.450E-01  0.450E-01  0.450E-01
   0.374  0.134E+00  0.448E-01  0.448E-01  0.448E-01
   0.384  0.133E+00  0.445E-01  0.445E-01  0.445E-01
   0.394  0.133E+00  0.442E-01  0.442E-01  0.442E-01
   0.404  0.132E+00  0.439E-01  0.439E-01  0.439E-01
   0.414  0.129E+00  0.431E-01  0.431E-01  0.431E-01
   0.424  0.127E+00  0.423E-01  0.423E-01  0.423E-01
   0.434  0.125E+00  0.418E-01  0.418E-01  0.418E-01
   0.444  0.124E+00  0.415E-01  0.415E-01  0.415E-01
   0.454  0.124E+00  0.412E-01  0.412E-01  0.412E-01
   0.464  0.123E+00  0.409E-01  0.409E-01  0.409E-01
   0.474  0.122E+00  0.407E-01  0.407E-01  0.407E-01
   0.484  0.121E+00  0.404E-01  0.404E-01  0.404E-01
   0.494  0.120E+00  0.401E-01  0.401E-01  0.401E-01
   0.504  0.120E+00  0.399E-01  0.399E-01  0.399E-01
   0.514  0.119E+00  0.397E-01  0.397E-01  0.397E-01
   0.524  0.118E+00  0.395E-01  0.395E-01  0.395E-01
   0.534  0.118E+00  0.393E-01  0.393E-01  0.393E-01
   0.544  0.117E+00  0.391E-01  0.391E-01  0.391E-01
   0.554  0.117E+00  0.389E-01  0.389E-01  0.389E-01
   0.564  0.116E+00  0.387E-01  0.387E-01  0.387E-01
   0.574  0.116E+00  0.385E-01  0.385E-01  0.385E-01
   0.584  0.115E+00  0.383E-01  0.383E-01  0.383E-01
   0.594  0.115E+00  0.382E-01  0.382E-01  0.382E-01
   0.604  0.114E+00  0.381E-01  0.381E-01  0.381E-01
   0.614  0.114E+00  0.379E-01  0.379E-01  0.379E-01
   0.624  0.113E+00  0.378E-01  0.378E-01  0.378E-01
   0.634  0.113E+00  0.376E-01  0.376E-01  0.376E-01
   0.644  0.112E+00  0.375E-01  0.375E-01  0.375E-01
   0.654  0.112E+00  0.373E-01  0.373E-01  0.373E-01
   0.664  0.112E+00  0.372E-01  0.372E-01  0.372E-01
   0.674  0.111E+00  0.371E-01  0.371E-01  0.371E-01
   0.684  0.111E+00  0.369E-01  0.369E-01  0.369E-01
   0.694  0.110E+00  0.368E-01  0.368E-01  0.368E-01
   0.704  0.110E+00  0.366E-01  0.366E-01  0.366E-01
   0.714  0.110E+00  0.365E-01  0.365E-01  0.365E-01
   0.724  0.109E+00  0.364E-01  0.364E-01  0.364E-01
   0.734  0.109E+00  0.362E-01  0.362E-01  0.362E-01
   0.744  0.108E+00  0.361E-01  0.361E-01  0.361E-01
   0.754  0.108E+00  0.360E-01  0.360E-01  0.360E-01
   0.764  0.108E+00  0.358E-01  0.358E-01  0.358E-01
   0.774  0.107E+00  0.357E-01  0.357E-01  0.357E-01
   0.784  0.107E+00  0.356E-01  0.356E-01  0.356E-01
   0.794  0.106E+00  0.354E-01  0.354E-01  0.354E-01
   0.804  0.106E+00  0.353E-01  0.353E-01  0.353E-01
   0.814  0.106E+00  0.352E-01  0.352E-01  0.352E-01
   0.824  0.105E+00  0.351E-01  0.351E-01  0.351E-01
   0.834  0.105E+00  0.349E-01  0.349E-01  0.349E-01
   0.844  0.104E+00  0.348E-01  0.348E-01  0.348E-01
   0.854  0.104E+00  0.346E-01  0.346E-01  0.346E-01
   0.864  0.104E+00  0.345E-01  0.345E-01  0.345E-01
   0.874  0.103E+00  0.344E-01  0.344E-01  0.344E-01
   0.884  0.103E+00  0.342E-01  0.342E-01  0.342E-01
   0.894  0.102E+00  0.341E-01  0.341E-01  0.341E-01
   0.904  0.102E+00  0.340E-01  0.340E-01  0.340E-01
   0.914  0.101E+00  0.338E-01  0.338E-01  0.338E-01
   0.924  0.101E+00  0.337E-01  0.337E-01  0.337E-01
   0.934  0.101E+00  0.335E-01  0.335E-01  0.335E-01
   0.944  0.100E+00  0.334E-01  0.334E-01  0.334E-01
   0.954  0.996E-01  0.332E-01  0.332E-01  0.332E-01
   0.964  0.991E-01  0.330E-01  0.330E-01  0.330E-01
   0.974  0.986E-01  0.329E-01  0.329E-01  0.329E-01
   0.984  0.982E-01  0.327E-01  0.327E-01  0.327E-01
   0.994  0.977E-01  0.326E-01  0.326E-01  0.326E-01
   1.004  0.971E-01  0.324E-01  0.324E-01  0.324E-01
   1.014  0.966E-01  0.322E-01  0.322E-01  0.322E-01
   1.024  0.961E-01  0.320E-01  0.320E-01  0.320E-01
   1.034  0.955E-01  0.318E-01  0.318E-01  0.318E-01
   1.044  0.950E-01  0.317E-01  0.317E-01  0.317E-01
   1.054  0.944E-01  0.315E-01  0.315E-01  0.315E-01
   1.064  0.939E-01  0.313E-01  0.313E-01  0.313E-01
   1.074  0.933E-01  0.311E-01  0.311E-01  0.311E-01
   1.084  0.927E-01  0.309E-01  0.309E-01  0.309E-01
   1.094  0.921E-01  0.307E-01  0.307E-01  0.307E-01
   1.104  0.915E-01  0.305E-01  0.305E-01  0.305E-01
   1.114  0.909E-01  0.303E-01  0.303E-01  0.303E-01
   1.124  0.904E-01  0.301E-01  0.301E-01  0.301E-01
   1.134  0.898E-01  0.299E-01  0.299E-01  0.299E-01
   1.144  0.893E-01  0.298E-01  0.298E-01  0.298E-01
   1.154  0.888E-01  0.296E-01  0.296E-01  0.296E-01
   1.164  0.882E-01  0.294E-01  0.294E-01  0.294E-01
   1.174  0.877E-01  0.292E-01  0.292E-01  0.292E-01
   1.184  0.872E-01  0.291E-01  0.291E-01  0.291E-01
   1.194  0.867E-01  0.289E-01  0.289E-01  0.289E-01
   1.204  0.862E-01  0.287E-01  0.287E-01  0.287E-01
   1.214  0.856E-01  0.285E-01  0.285E-01  0.285E-01
   1.224  0.847E-01  0.282E-01  0.282E-01  0.282E-01
   1.234  0.839E-01  0.280E-01  0.280E-01  0.280E-01
   1.244  0.832E-01  0.277E-01  0.277E-01  0.277E-01
   1.254  0.825E-01  0.275E-01  0.275E-01  0.275E-01
   1.264  0.818E-01  0.273E-01  0.273E-01  0.273E-01
   1.274  0.811E-01  0.270E-01  0.270E-01  0.270E-01
   1.284  0.805E-01  0.268E-01  0.268E-01  0.268E-01
   1.294  0.799E-01  0.266E-01  0.266E-01  0.266E-01
   1.304  0.794E-01  0.265E-01  0.265E-01  0.265E-01
   1.314  0.789E-01  0.263E-01  0.263E-01  0.263E-01
   1.324  0.784E-01  0.261E-01  0.261E-01  0.261E-01
   1.334  0.780E-01  0.260E-01  0.260E-01  0.260E-01
   1.344  0.776E-01  0.259E-01  0.259E-01  0.259E-01
   1.354  0.772E-01  0.257E-01  0.257E-01  0.257E-01
   1.364  0.769E-01  0.256E-01  0.256E-01  0.256E-01
   1.374  0.766E-01  0.255E-01  0.255E-01  0.255E-01
   1.384  0.764E-01  0.255E-01  0.255E-01  0.255E-01
   1.394  0.761E-01  0.254E-01  0.254E-01  0.254E-01
   1.404  0.759E-01  0.253E-01  0.253E-01  0.253E-01
   1.414  0.757E-01  0.252E-01  0.252E-01  0.252E-01
   1.424  0.755E-01  0.252E-01  0.252E-01  0.252E-01
   1.434  0.752E-01  0.251E-01  0.251E-01  0.251E-01
   1.444  0.750E-01  0.250E-01  0.250E-01  0.250E-01
   1.454  0.748E-01  0.249E-01  0.249E-01  0.249E-01
   1.464  0.746E-01  0.249E-01  0.249E-01  0.249E-01
   1.474  0.744E-01  0.248E-01  0.248E-01  0.248E-01
   1.484  0.741E-01  0.247E-01  0.247E-01  0.247E-01
   1.494  0.739E-01  0.246E-01  0.246E-01  0.246E-01
   1.504  0.737E-01  0.246E-01  0.246E-01  0.246E-01
   1.514  0.735E-01  0.245E-01  0.245E-01  0.245E-01
   1.524  0.733E-01  0.244E-01  0.244E-01  0.244E-01
   1.534  0.730E-01  0.243E-01  0.243E-01  0.243E-01
   1.544  0.728E-01  0.243E-01  0.243E-01  0.243E-01
   1.554  0.726E-01  0.242E-01  0.242E-01  0.242E-01
   1.564  0.724E-01  0.241E-01  0.241E-01  0.241E-01
   1.574  0.722E-01  0.241E-01  0.241E-01  0.241E-01
   1.584  0.720E-01  0.240E-01  0.240E-01  0.240E-01
   1.594  0.717E-01  0.239E-01  0.239E-01  0.239E-01
   1.604  0.715E-01  0.238E-01  0.238E-01  0.238E-01
   1.614  0.714E-01  0.238E-01  0.238E-01  0.238E-01
   1.624  0.725E-01  0.242E-01  0.242E-01  0.242E-01
   1.634  0.751E-01  0.250E-01  0.250E-01  0.250E-01
   1.644  0.791E-01  0.264E-01  0.264E-01  0.264E-01
   1.654  0.845E-01  0.282E-01  0.282E-01  0.282E-01
   1.664  0.913E-01  0.304E-01  0.304E-01  0.304E-01
   1.674  0.996E-01  0.332E-01  0.332E-01  0.332E-01
   1.684  0.109E+00  0.364E-01  0.364E-01  0.364E-01
   1.694  0.120E+00  0.401E-01  0.401E-01  0.401E-01
   1.704  0.133E+00  0.443E-01  0.443E-01  0.443E-01
   1.714  0.147E+00  0.490E-01  0.490E-01  0.490E-01
   1.724  0.162E+00  0.541E-01  0.541E-01  0.541E-01
   1.734  0.179E+00  0.598E-01  0.598E-01  0.598E-01
   1.744  0.198E+00  0.659E-01  0.659E-01  0.659E-01
   1.754  0.217E+00  0.724E-01  0.724E-01  0.724E-01
   1.764  0.238E+00  0.795E-01  0.795E-01  0.795E-01
   1.774  0.262E+00  0.872E-01  0.872E-01  0.872E-01
   1.784  0.345E+00  0.115E+00  0.115E+00  0.115E+00
   1.794  0.421E+00  0.140E+00  0.140E+00  0.140E+00
   1.804  0.403E+00  0.134E+00  0.134E+00  0.134E+00
   1.814  0.392E+00  0.131E+00  0.131E+00  0.131E+00
   1.824  0.395E+00  0.132E+00  0.132E+00  0.132E+00
   1.834  0.401E+00  0.134E+00  0.134E+00  0.134E+00
   1.844  0.410E+00  0.137E+00  0.137E+00  0.137E+00
   1.854  0.421E+00  0.140E+00  0.140E+00  0.140E+00
   1.864  0.435E+00  0.145E+00  0.145E+00  0.145E+00
   1.874  0.452E+00  0.151E+00  0.151E+00  0.151E+00
   1.884  0.471E+00  0.157E+00  0.157E+00  0.157E+00
   1.894  0.491E+00  0.164E+00  0.164E+00  0.164E+00
   1.904  0.512E+00  0.171E+00  0.171E+00  0.171E+00
   1.914  0.535E+00  0.178E+00  0.178E+00  0.178E+00
   1.924  0.559E+00  0.186E+00  0.186E+00  0.186E+00
   1.934  0.584E+00  0.195E+00  0.195E+00  0.195E+00
   1.944  0.603E+00  0.201E+00  0.201E+00  0.201E+00
   1.954  0.591E+00  0.197E+00  0.197E+00  0.197E+00
   1.964  0.580E+00  0.193E+00  0.193E+00  0.193E+00
   1.974  0.572E+00  0.191E+00  0.191E+00  0.191E+00
   1.984  0.565E+00  0.188E+00  0.188E+00  0.188E+00
   1.994  0.560E+00  0.187E+00  0.187E+00  0.187E+00
   2.004  0.558E+00  0.186E+00  0.186E+00  0.186E+00
   2.014  0.557E+00  0.186E+00  0.186E+00  0.186E+00
   2.024  0.557E+00  0.186E+00  0.186E+00  0.186E+00
   2.034  0.556E+00  0.185E+00  0.185E+00  0.185E+00
   2.044  0.553E+00  0.184E+00  0.184E+00  0.184E+00
   2.054  0.549E+00  0.183E+00  0.183E+00  0.183E+00
   2.064  0.543E+00  0.181E+00  0.181E+00  0.181E+00
   2.074  0.535E+00  0.178E+00  0.178E+00  0.178E+00
   2.084  0.525E+00  0.175E+00  0.175E+00  0.175E+00
   2.094  0.516E+00  0.172E+00  0.172E+00  0.172E+00
   2.104  0.509E+00  0.170E+00  0.170E+00  0.170E+00
   2.114  0.504E+00  0.168E+00  0.168E+00  0.168E+00
   2.124  0.500E+00  0.167E+00  0.167E+00  0.167E+00
   2.134  0.496E+00  0.165E+00  0.165E+00  0.165E+00
   2.144  0.493E+00  0.164E+00  0.164E+00  0.164E+00
   2.154  0.490E+00  0.163E+00  0.163E+00  0.163E+00
   2.164  0.488E+00  0.163E+00  0.163E+00  0.163E+00
   2.174  0.485E+00  0.162E+00  0.162E+00  0.162E+00
   2.184  0.483E+00  0.161E+00  0.161E+00  0.161E+00
   2.194  0.481E+00  0.160E+00  0.160E+00  0.160E+00
   2.204  0.479E+00  0.160E+00  0.160E+00  0.160E+00
   2.214  0.477E+00  0.159E+00  0.159E+00  0.159E+00
   2.224  0.475E+00  0.158E+00  0.158E+00  0.158E+00
   2.234  0.473E+00  0.158E+00  0.158E+00  0.158E+00
   2.244  0.472E+00  0.157E+00  0.157E+00  0.157E+00
   2.254  0.470E+00  0.157E+00  0.157E+00  0.157E+00
   2.264  0.469E+00  0.156E+00  0.156E+00  0.156E+00
   2.274  0.495E+00  0.165E+00  0.165E+00  0.165E+00
   2.284  0.520E+00  0.173E+00  0.173E+00  0.173E+00
   2.294  0.507E+00  0.169E+00  0.169E+00  0.169E+00
   2.304  0.495E+00  0.165E+00  0.165E+00  0.165E+00
   2.314  0.484E+00  0.161E+00  0.161E+00  0.161E+00
   2.324  0.475E+00  0.158E+00  0.158E+00  0.158E+00
   2.334  0.468E+00  0.156E+00  0.156E+00  0.156E+00
   2.344  0.461E+00  0.154E+00  0.154E+00  0.154E+00
   2.354  0.456E+00  0.152E+00  0.152E+00  0.152E+00
   2.364  0.453E+00  0.151E+00  0.151E+00  0.151E+00
   2.374  0.451E+00  0.150E+00  0.150E+00  0.150E+00
   2.384  0.450E+00  0.150E+00  0.150E+00  0.150E+00
   2.394  0.451E+00  0.150E+00  0.150E+00  0.150E+00
   2.404  0.451E+00  0.150E+00  0.150E+00  0.150E+00
   2.414  0.452E+00  0.151E+00  0.151E+00  0.151E+00
   2.424  0.452E+00  0.151E+00  0.151E+00  0.151E+00
   2.434  0.453E+00  0.151E+00  0.151E+00  0.151E+00
   2.444  0.454E+00  0.151E+00  0.151E+00  0.151E+00
   2.454  0.454E+00  0.151E+00  0.151E+00  0.151E+00
   2.464  0.455E+00  0.152E+00  0.152E+00  0.152E+00
   2.474  0.455E+00  0.152E+00  0.152E+00  0.152E+00
   2.484  0.456E+00  0.152E+00  0.152E+00  0.152E+00
   2.494  0.457E+00  0.152E+00  0.152E+00  0.152E+00
   2.504  0.458E+00  0.153E+00  0.153E+00  0.153E+00
   2.514  0.460E+00  0.153E+00  0.153E+00  0.153E+00
   2.524  0.461E+00  0.154E+00  0.154E+00  0.154E+00
   2.534  0.460E+00  0.153E+00  0.153E+00  0.153E+00
   2.544  0.459E+00  0.153E+00  0.153E+00  0.153E+00
   2.554  0.458E+00  0.153E+00  0.153E+00  0.153E+00
   2.564  0.457E+00  0.152E+00  0.152E+00  0.152E+00
   2.574  0.455E+00  0.152E+00  0.152E+00  0.152E+00
   2.584  0.455E+00  0.152E+00  0.152E+00  0.152E+00
   2.594  0.455E+00  0.152E+00  0.152E+00  0.152E+00
   2.604  0.455E+00  0.152E+00  0.152E+00  0.152E+00
   2.614  0.455E+00  0.152E+00  0.152E+00  0.152E+00
   2.624  0.456E+00  0.152E+00  0.152E+00  0.152E+00
   2.634  0.456E+00  0.152E+00  0.152E+00  0.152E+00
   2.644  0.457E+00  0.152E+00  0.152E+00  0.152E+00
   2.654  0.458E+00  0.153E+00  0.153E+00  0.153E+00
   2.664  0.459E+00  0.153E+00  0.153E+00  0.153E+00
   2.674  0.460E+00  0.153E+00  0.153E+00  0.153E+00
   2.684  0.461E+00  0.154E+00  0.154E+00  0.154E+00
   2.694  0.463E+00  0.154E+00  0.154E+00  0.154E+00
   2.704  0.464E+00  0.155E+00  0.155E+00  0.155E+00
   2.714  0.466E+00  0.155E+00  0.155E+00  0.155E+00
   2.724  0.467E+00  0.156E+00  0.156E+00  0.156E+00
   2.734  0.469E+00  0.156E+00  0.156E+00  0.156E+00
   2.744  0.472E+00  0.157E+00  0.157E+00  0.157E+00
   2.754  0.474E+00  0.158E+00  0.158E+00  0.158E+00
   2.764  0.477E+00  0.159E+00  0.159E+00  0.159E+00
   2.774  0.479E+00  0.160E+00  0.160E+00  0.160E+00
   2.784  0.481E+00  0.160E+00  0.160E+00  0.160E+00
   2.794  0.483E+00  0.161E+00  0.161E+00  0.161E+00
   2.804  0.485E+00  0.162E+00  0.162E+00  0.162E+00
   2.814  0.487E+00  0.162E+00  0.162E+00  0.162E+00
   2.824  0.489E+00  0.163E+00  0.163E+00  0.163E+00
   2.834  0.491E+00  0.164E+00  0.164E+00  0.164E+00
   2.844  0.492E+00  0.164E+00  0.164E+00  0.164E+00
   2.854  0.494E+00  0.165E+00  0.165E+00  0.165E+00
   2.864  0.495E+00  0.165E+00  0.165E+00  0.165E+00
   2.874  0.613E+00  0.204E+00  0.204E+00  0.204E+00
   2.884  0.607E+00  0.202E+00  0.202E+00  0.202E+00
   2.894  0.563E+00  0.188E+00  0.188E+00  0.188E+00
   2.904  0.535E+00  0.178E+00  0.178E+00  0.178E+00
   2.914  0.524E+00  0.175E+00  0.175E+00  0.175E+00
   2.924  0.526E+00  0.175E+00  0.175E+00  0.175E+00
   2.934  0.529E+00  0.176E+00  0.176E+00  0.176E+00
   2.944  0.533E+00  0.178E+00  0.178E+00  0.178E+00
   2.954  0.538E+00  0.179E+00  0.179E+00  0.179E+00
   2.964  0.545E+00  0.182E+00  0.182E+00  0.182E+00
   2.974  0.552E+00  0.184E+00  0.184E+00  0.184E+00
   2.984  0.559E+00  0.186E+00  0.186E+00  0.186E+00
   2.994  0.568E+00  0.189E+00  0.189E+00  0.189E+00
   3.004  0.577E+00  0.192E+00  0.192E+00  0.192E+00
   3.014  0.587E+00  0.196E+00  0.196E+00  0.196E+00
   3.024  0.598E+00  0.199E+00  0.199E+00  0.199E+00
   3.034  0.610E+00  0.203E+00  0.203E+00  0.203E+00
   3.044  0.622E+00  0.207E+00  0.207E+00  0.207E+00
   3.054  0.636E+00  0.212E+00  0.212E+00  0.212E+00
   3.064  0.650E+00  0.217E+00  0.217E+00  0.217E+00
   3.074  0.656E+00  0.219E+00  0.219E+00  0.219E+00
   3.084  0.644E+00  0.215E+00  0.215E+00  0.215E+00
   3.094  0.637E+00  0.212E+00  0.212E+00  0.212E+00
   3.104  0.635E+00  0.212E+00  0.212E+00  0.212E+00
   3.114  0.638E+00  0.213E+00  0.213E+00  0.213E+00
   3.124  0.645E+00  0.215E+00  0.215E+00  0.215E+00
   3.134  0.652E+00  0.217E+00  0.217E+00  0.217E+00
   3.144  0.656E+00  0.219E+00  0.219E+00  0.219E+00
   3.154  0.657E+00  0.219E+00  0.219E+00  0.219E+00
   3.164  0.660E+00  0.220E+00  0.220E+00  0.220E+00
   3.174  0.664E+00  0.221E+00  0.221E+00  0.221E+00
   3.184  0.671E+00  0.224E+00  0.224E+00  0.224E+00
   3.194  0.679E+00  0.226E+00  0.226E+00  0.226E+00
   3.204  0.688E+00  0.229E+00  0.229E+00  0.229E+00
   3.214  0.698E+00  0.233E+00  0.233E+00  0.233E+00
   3.224  0.710E+00  0.237E+00  0.237E+00  0.237E+00
   3.234  0.723E+00  0.241E+00  0.241E+00  0.241E+00
   3.244  0.738E+00  0.246E+00  0.246E+00  0.246E+00
   3.254  0.754E+00  0.251E+00  0.251E+00  0.251E+00
   3.264  0.771E+00  0.257E+00  0.257E+00  0.257E+00
   3.274  0.768E+00  0.256E+00  0.256E+00  0.256E+00
   3.284  0.729E+00  0.243E+00  0.243E+00  0.243E+00
   3.294  0.705E+00  0.235E+00  0.235E+00  0.235E+00
   3.304  0.695E+00  0.232E+00  0.232E+00  0.232E+00
   3.314  0.694E+00  0.231E+00  0.231E+00  0.231E+00
   3.324  0.694E+00  0.231E+00  0.231E+00  0.231E+00
   3.334  0.694E+00  0.231E+00  0.231E+00  0.231E+00
   3.344  0.694E+00  0.231E+00  0.231E+00  0.231E+00
   3.354  0.694E+00  0.231E+00  0.231E+00  0.231E+00
   3.364  0.694E+00  0.231E+00  0.231E+00  0.231E+00
   3.374  0.694E+00  0.231E+00  0.231E+00  0.231E+00
   3.384  0.694E+00  0.231E+00  0.231E+00  0.231E+00
   3.394  0.694E+00  0.231E+00  0.231E+00  0.231E+00
   3.404  0.694E+00  0.231E+00  0.231E+00  0.231E+00
   3.414  0.695E+00  0.232E+00  0.232E+00  0.232E+00
   3.424  0.695E+00  0.232E+00  0.232E+00  0.232E+00
   3.434  0.695E+00  0.232E+00  0.232E+00  0.232E+00
   3.444  0.694E+00  0.231E+00  0.231E+00  0.231E+00
   3.454  0.694E+00  0.231E+00  0.231E+00  0.231E+00
   3.464  0.693E+00  0.231E+00  0.231E+00  0.231E+00
   3.474  0.692E+00  0.231E+00  0.231E+00  0.231E+00
   3.484  0.691E+00  0.230E+00  0.230E+00  0.230E+00
   3.494  0.691E+00  0.230E+00  0.230E+00  0.230E+00
   3.504  0.691E+00  0.230E+00  0.230E+00  0.230E+00
   3.514  0.692E+00  0.231E+00  0.231E+00  0.231E+00
   3.524  0.692E+00  0.231E+00  0.231E+00  0.231E+00
   3.534  0.692E+00  0.231E+00  0.231E+00  0.231E+00
   3.544  0.691E+00  0.230E+00  0.230E+00  0.230E+00
   3.554  0.691E+00  0.230E+00  0.230E+00  0.230E+00
   3.564  0.689E+00  0.230E+00  0.230E+00  0.230E+00
   3.574  0.688E+00  0.229E+00  0.229E+00  0.229E+00
   3.584  0.686E+00  0.229E+00  0.229E+00  0.229E+00
   3.594  0.684E+00  0.228E+00  0.228E+00  0.228E+00
   3.604  0.681E+00  0.227E+00  0.227E+00  0.227E+00
   3.614  0.678E+00  0.226E+00  0.226E+00  0.226E+00
   3.624  0.675E+00  0.225E+00  0.225E+00  0.225E+00
   3.634  0.672E+00  0.224E+00  0.224E+00  0.224E+00
   3.644  0.670E+00  0.223E+00  0.223E+00  0.223E+00
   3.654  0.669E+00  0.223E+00  0.223E+00  0.223E+00
   3.664  0.667E+00  0.222E+00  0.222E+00  0.222E+00
   3.674  0.665E+00  0.222E+00  0.222E+00  0.222E+00
   3.684  0.664E+00  0.221E+00  0.221E+00  0.221E+00
   3.694  0.662E+00  0.221E+00  0.221E+00  0.221E+00
   3.704  0.660E+00  0.220E+00  0.220E+00  0.220E+00
   3.714  0.659E+00  0.220E+00  0.220E+00  0.220E+00
   3.724  0.657E+00  0.219E+00  0.219E+00  0.219E+00
   3.734  0.655E+00  0.218E+00  0.218E+00  0.218E+00
   3.744  0.653E+00  0.218E+00  0.218E+00  0.218E+00
   3.754  0.651E+00  0.217E+00  0.217E+00  0.217E+00
   3.764  0.649E+00  0.216E+00  0.216E+00  0.216E+00
   3.774  0.647E+00  0.216E+00  0.216E+00  0.216E+00
   3.784  0.645E+00  0.215E+00  0.215E+00  0.215E+00
   3.794  0.643E+00  0.214E+00  0.214E+00  0.214E+00
   3.804  0.641E+00  0.214E+00  0.214E+00  0.214E+00
   3.814  0.639E+00  0.213E+00  0.213E+00  0.213E+00
   3.824  0.638E+00  0.213E+00  0.213E+00  0.213E+00
   3.834  0.637E+00  0.212E+00  0.212E+00  0.212E+00
   3.844  0.637E+00  0.212E+00  0.212E+00  0.212E+00
   3.854  0.638E+00  0.213E+00  0.213E+00  0.213E+00
   3.864  0.638E+00  0.213E+00  0.213E+00  0.213E+00
   3.874  0.639E+00  0.213E+00  0.213E+00  0.213E+00
   3.884  0.640E+00  0.213E+00  0.213E+00  0.213E+00
   3.894  0.640E+00  0.213E+00  0.213E+00  0.213E+00
   3.904  0.641E+00  0.214E+00  0.214E+00  0.214E+00
   3.914  0.642E+00  0.214E+00  0.214E+00  0.214E+00
   3.924  0.642E+00  0.214E+00  0.214E+00  0.214E+00
   3.934  0.642E+00  0.214E+00  0.214E+00  0.214E+00
   3.944  0.642E+00  0.214E+00  0.214E+00  0.214E+00
   3.954  0.642E+00  0.214E+00  0.214E+00  0.214E+00
   3.964  0.642E+00  0.214E+00  0.214E+00  0.214E+00
   3.974  0.642E+00  0.214E+00  0.214E+00  0.214E+00
   3.984  0.641E+00  0.214E+00  0.214E+00  0.214E+00
   3.994  0.641E+00  0.214E+00  0.214E+00  0.214E+00
   4.004  0.640E+00  0.213E+00  0.213E+00  0.213E+00
   4.014  0.640E+00  0.213E+00  0.213E+00  0.213E+00
   4.024  0.639E+00  0.213E+00  0.213E+00  0.213E+00
   4.034  0.638E+00  0.213E+00  0.213E+00  0.213E+00
   4.044  0.637E+00  0.212E+00  0.212E+00  0.212E+00
   4.054  0.636E+00  0.212E+00  0.212E+00  0.212E+00
   4.064  0.635E+00  0.212E+00  0.212E+00  0.212E+00
   4.074  0.633E+00  0.211E+00  0.211E+00  0.211E+00
   4.084  0.632E+00  0.211E+00  0.211E+00  0.211E+00
   4.094  0.630E+00  0.210E+00  0.210E+00  0.210E+00
   4.104  0.628E+00  0.209E+00  0.209E+00  0.209E+00
   4.114  0.627E+00  0.209E+00  0.209E+00  0.209E+00
   4.124  0.625E+00  0.208E+00  0.208E+00  0.208E+00
   4.134  0.623E+00  0.208E+00  0.208E+00  0.208E+00
   4.144  0.621E+00  0.207E+00  0.207E+00  0.207E+00
   4.154  0.619E+00  0.206E+00  0.206E+00  0.206E+00
   4.164  0.617E+00  0.206E+00  0.206E+00  0.206E+00
   4.174  0.615E+00  0.205E+00  0.205E+00  0.205E+00
   4.184  0.613E+00  0.204E+00  0.204E+00  0.204E+00
   4.194  0.611E+00  0.204E+00  0.204E+00  0.204E+00
   4.204  0.609E+00  0.203E+00  0.203E+00  0.203E+00
   4.214  0.607E+00  0.202E+00  0.202E+00  0.202E+00
   4.224  0.605E+00  0.202E+00  0.202E+00  0.202E+00
   4.234  0.604E+00  0.201E+00  0.201E+00  0.201E+00
   4.244  0.603E+00  0.201E+00  0.201E+00  0.201E+00
   4.254  0.602E+00  0.201E+00  0.201E+00  0.201E+00
   4.264  0.602E+00  0.201E+00  0.201E+00  0.201E+00
   4.274  0.603E+00  0.201E+00  0.201E+00  0.201E+00
   4.284  0.602E+00  0.201E+00  0.201E+00  0.201E+00
   4.294  0.602E+00  0.201E+00  0.201E+00  0.201E+00
   4.304  0.602E+00  0.201E+00  0.201E+00  0.201E+00
   4.314  0.602E+00  0.201E+00  0.201E+00  0.201E+00
   4.324  0.602E+00  0.201E+00  0.201E+00  0.201E+00
   4.334  0.602E+00  0.201E+00  0.201E+00  0.201E+00
   4.344  0.602E+00  0.201E+00  0.201E+00  0.201E+00
   4.354  0.602E+00  0.201E+00  0.201E+00  0.201E+00
   4.364  0.603E+00  0.201E+00  0.201E+00  0.201E+00
   4.374  0.603E+00  0.201E+00  0.201E+00  0.201E+00
   4.384  0.603E+00  0.201E+00  0.201E+00  0.201E+00
   4.394  0.603E+00  0.201E+00  0.201E+00  0.201E+00
   4.404  0.604E+00  0.201E+00  0.201E+00  0.201E+00
   4.414  0.604E+00  0.201E+00  0.201E+00  0.201E+00
   4.424  0.604E+00  0.201E+00  0.201E+00  0.201E+00
   4.434  0.605E+00  0.202E+00  0.202E+00  0.202E+00
   4.444  0.605E+00  0.202E+00  0.202E+00  0.202E+00
   4.454  0.606E+00  0.202E+00  0.202E+00  0.202E+00
   4.464  0.606E+00  0.202E+00  0.202E+00  0.202E+00
   4.474  0.606E+00  0.202E+00  0.202E+00  0.202E+00
   4.484  0.606E+00  0.202E+00  0.202E+00  0.202E+00
   4.494  0.606E+00  0.202E+00  0.202E+00  0.202E+00
   4.504  0.605E+00  0.202E+00  0.202E+00  0.202E+00
   4.514  0.605E+00  0.202E+00  0.202E+00  0.202E+00
   4.524  0.602E+00  0.201E+00  0.201E+00  0.201E+00
   4.534  0.600E+00  0.200E+00  0.200E+00  0.200E+00
   4.544  0.598E+00  0.199E+00  0.199E+00  0.199E+00
   4.554  0.596E+00  0.199E+00  0.199E+00  0.199E+00
   4.564  0.594E+00  0.198E+00  0.198E+00  0.198E+00
   4.574  0.592E+00  0.197E+00  0.197E+00  0.197E+00
   4.584  0.591E+00  0.197E+00  0.197E+00  0.197E+00
   4.594  0.589E+00  0.196E+00  0.196E+00  0.196E+00
   4.604  0.587E+00  0.196E+00  0.196E+00  0.196E+00
   4.614  0.585E+00  0.195E+00  0.195E+00  0.195E+00
   4.624  0.583E+00  0.194E+00  0.194E+00  0.194E+00
   4.634  0.581E+00  0.194E+00  0.194E+00  0.194E+00
   4.644  0.579E+00  0.193E+00  0.193E+00  0.193E+00
   4.654  0.578E+00  0.193E+00  0.193E+00  0.193E+00
   4.664  0.576E+00  0.192E+00  0.192E+00  0.192E+00
   4.674  0.574E+00  0.191E+00  0.191E+00  0.191E+00
   4.684  0.573E+00  0.191E+00  0.191E+00  0.191E+00
   4.694  0.575E+00  0.192E+00  0.192E+00  0.192E+00
   4.704  0.575E+00  0.192E+00  0.192E+00  0.192E+00
   4.714  0.575E+00  0.192E+00  0.192E+00  0.192E+00
   4.724  0.575E+00  0.192E+00  0.192E+00  0.192E+00
   4.734  0.573E+00  0.191E+00  0.191E+00  0.191E+00
   4.744  0.572E+00  0.191E+00  0.191E+00  0.191E+00
   4.754  0.569E+00  0.190E+00  0.190E+00  0.190E+00
   4.764  0.565E+00  0.188E+00  0.188E+00  0.188E+00
   4.774  0.560E+00  0.187E+00  0.187E+00  0.187E+00
   4.784  0.555E+00  0.185E+00  0.185E+00  0.185E+00
   4.794  0.549E+00  0.183E+00  0.183E+00  0.183E+00
   4.804  0.541E+00  0.180E+00  0.180E+00  0.180E+00
   4.814  0.534E+00  0.178E+00  0.178E+00  0.178E+00
   4.824  0.525E+00  0.175E+00  0.175E+00  0.175E+00
   4.834  0.514E+00  0.171E+00  0.171E+00  0.171E+00
   4.844  0.500E+00  0.167E+00  0.167E+00  0.167E+00
   4.854  0.482E+00  0.161E+00  0.161E+00  0.161E+00
   4.864  0.461E+00  0.154E+00  0.154E+00  0.154E+00
   4.874  0.444E+00  0.148E+00  0.148E+00  0.148E+00
   4.884  0.429E+00  0.143E+00  0.143E+00  0.143E+00
   4.894  0.417E+00  0.139E+00  0.139E+00  0.139E+00
   4.904  0.409E+00  0.136E+00  0.136E+00  0.136E+00
   4.914  0.403E+00  0.134E+00  0.134E+00  0.134E+00
   4.924  0.396E+00  0.132E+00  0.132E+00  0.132E+00
   4.934  0.390E+00  0.130E+00  0.130E+00  0.130E+00
   4.944  0.384E+00  0.128E+00  0.128E+00  0.128E+00
   4.954  0.378E+00  0.126E+00  0.126E+00  0.126E+00
   4.964  0.371E+00  0.124E+00  0.124E+00  0.124E+00
   4.974  0.364E+00  0.121E+00  0.121E+00  0.121E+00
   4.984  0.358E+00  0.119E+00  0.119E+00  0.119E+00
   4.994  0.351E+00  0.117E+00  0.117E+00  0.117E+00
   5.004  0.344E+00  0.115E+00  0.115E+00  0.115E+00
   5.014  0.337E+00  0.112E+00  0.112E+00  0.112E+00
   5.024  0.330E+00  0.110E+00  0.110E+00  0.110E+00
   5.034  0.323E+00  0.108E+00  0.108E+00  0.108E+00
   5.044  0.316E+00  0.105E+00  0.105E+00  0.105E+00
   5.054  0.309E+00  0.103E+00  0.103E+00  0.103E+00
   5.064  0.303E+00  0.101E+00  0.101E+00  0.101E+00
   5.074  0.299E+00  0.997E-01  0.997E-01  0.997E-01
   5.084  0.295E+00  0.984E-01  0.984E-01  0.984E-01
   5.094  0.292E+00  0.972E-01  0.972E-01  0.972E-01
   5.104  0.288E+00  0.960E-01  0.960E-01  0.960E-01
   5.114  0.284E+00  0.948E-01  0.948E-01  0.948E-01
   5.124  0.281E+00  0.936E-01  0.936E-01  0.936E-01
   5.134  0.277E+00  0.923E-01  0.923E-01  0.923E-01
   5.144  0.273E+00  0.911E-01  0.911E-01  0.911E-01
   5.154  0.270E+00  0.899E-01  0.899E-01  0.899E-01
   5.164  0.266E+00  0.887E-01  0.887E-01  0.887E-01
   5.174  0.262E+00  0.875E-01  0.875E-01  0.875E-01
   5.184  0.259E+00  0.863E-01  0.863E-01  0.863E-01
   5.194  0.255E+00  0.852E-01  0.852E-01  0.852E-01
   5.204  0.252E+00  0.841E-01  0.841E-01  0.841E-01
   5.214  0.249E+00  0.831E-01  0.831E-01  0.831E-01
   5.224  0.247E+00  0.823E-01  0.823E-01  0.823E-01
   5.234  0.245E+00  0.817E-01  0.817E-01  0.817E-01
   5.244  0.244E+00  0.812E-01  0.812E-01  0.812E-01
   5.254  0.243E+00  0.809E-01  0.809E-01  0.809E-01
   5.264  0.242E+00  0.807E-01  0.807E-01  0.807E-01
   5.274  0.239E+00  0.796E-01  0.796E-01  0.796E-01
   5.284  0.235E+00  0.784E-01  0.784E-01  0.784E-01
   5.294  0.231E+00  0.772E-01  0.772E-01  0.772E-01
   5.304  0.228E+00  0.760E-01  0.760E-01  0.760E-01
   5.314  0.224E+00  0.748E-01  0.748E-01  0.748E-01
   5.324  0.221E+00  0.736E-01  0.736E-01  0.736E-01
   5.334  0.218E+00  0.725E-01  0.725E-01  0.725E-01
   5.344  0.214E+00  0.714E-01  0.714E-01  0.714E-01
   5.354  0.211E+00  0.703E-01  0.703E-01  0.703E-01
   5.364  0.208E+00  0.692E-01  0.692E-01  0.692E-01
   5.374  0.205E+00  0.682E-01  0.682E-01  0.682E-01
   5.384  0.202E+00  0.672E-01  0.672E-01  0.672E-01
   5.394  0.198E+00  0.661E-01  0.661E-01  0.661E-01
   5.404  0.195E+00  0.651E-01  0.651E-01  0.651E-01
   5.414  0.192E+00  0.641E-01  0.641E-01  0.641E-01
   5.424  0.189E+00  0.631E-01  0.631E-01  0.631E-01
   5.434  0.186E+00  0.621E-01  0.621E-01  0.621E-01
   5.444  0.183E+00  0.611E-01  0.611E-01  0.611E-01
   5.454  0.180E+00  0.600E-01  0.600E-01  0.600E-01
   5.464  0.177E+00  0.590E-01  0.590E-01  0.590E-01
   5.474  0.174E+00  0.579E-01  0.579E-01  0.579E-01
   5.484  0.171E+00  0.569E-01  0.569E-01  0.569E-01
   5.494  0.168E+00  0.558E-01  0.558E-01  0.558E-01
   5.504  0.164E+00  0.548E-01  0.548E-01  0.548E-01
   5.514  0.161E+00  0.538E-01  0.538E-01  0.538E-01
   5.524  0.158E+00  0.528E-01  0.528E-01  0.528E-01
   5.534  0.155E+00  0.518E-01  0.518E-01  0.518E-01
   5.544  0.152E+00  0.508E-01  0.508E-01  0.508E-01
   5.554  0.149E+00  0.498E-01  0.498E-01  0.498E-01
   5.564  0.147E+00  0.488E-01  0.488E-01  0.488E-01
   5.574  0.144E+00  0.479E-01  0.479E-01  0.479E-01
   5.584  0.141E+00  0.469E-01  0.469E-01  0.469E-01
   5.594  0.138E+00  0.460E-01  0.460E-01  0.460E-01
   5.604  0.135E+00  0.451E-01  0.451E-01  0.451E-01
   5.614  0.133E+00  0.442E-01  0.442E-01  0.442E-01
   5.624  0.130E+00  0.432E-01  0.432E-01  0.432E-01
   5.634  0.127E+00  0.423E-01  0.423E-01  0.423E-01
   5.644  0.124E+00  0.413E-01  0.413E-01  0.413E-01
   5.654  0.121E+00  0.403E-01  0.403E-01  0.403E-01
   5.664  0.118E+00  0.392E-01  0.392E-01  0.392E-01
   5.674  0.114E+00  0.381E-01  0.381E-01  0.381E-01
   5.684  0.111E+00  0.370E-01  0.370E-01  0.370E-01
   5.694  0.108E+00  0.359E-01  0.359E-01  0.359E-01
   5.704  0.104E+00  0.348E-01  0.348E-01  0.348E-01
   5.714  0.101E+00  0.336E-01  0.336E-01  0.336E-01
   5.724  0.976E-01  0.325E-01  0.325E-01  0.325E-01
   5.734  0.945E-01  0.315E-01  0.315E-01  0.315E-01
   5.744  0.915E-01  0.305E-01  0.305E-01  0.305E-01
   5.754  0.886E-01  0.295E-01  0.295E-01  0.295E-01
   5.764  0.859E-01  0.286E-01  0.286E-01  0.286E-01
   5.774  0.832E-01  0.277E-01  0.277E-01  0.277E-01
   5.784  0.807E-01  0.269E-01  0.269E-01  0.269E-01
   5.794  0.783E-01  0.261E-01  0.261E-01  0.261E-01
   5.804  0.760E-01  0.253E-01  0.253E-01  0.253E-01
   5.814  0.738E-01  0.246E-01  0.246E-01  0.246E-01
   5.824  0.717E-01  0.239E-01  0.239E-01  0.239E-01
   5.834  0.698E-01  0.233E-01  0.233E-01  0.233E-01
   5.844  0.679E-01  0.226E-01  0.226E-01  0.226E-01
   5.854  0.662E-01  0.221E-01  0.221E-01  0.221E-01
   5.864  0.646E-01  0.215E-01  0.215E-01  0.215E-01
   5.874  0.631E-01  0.210E-01  0.210E-01  0.210E-01
   5.884  0.618E-01  0.206E-01  0.206E-01  0.206E-01
   5.894  0.605E-01  0.202E-01  0.202E-01  0.202E-01
   5.904  0.593E-01  0.198E-01  0.198E-01  0.198E-01
   5.914  0.583E-01  0.194E-01  0.194E-01  0.194E-01
   5.924  0.471E-01  0.157E-01  0.157E-01  0.157E-01
   5.934  0.303E-01  0.101E-01  0.101E-01  0.101E-01
   5.944  0.216E-01  0.720E-02  0.720E-02  0.720E-02
   5.954  0.181E-01  0.602E-02  0.602E-02  0.602E-02
   5.964  0.149E-01  0.497E-02  0.497E-02  0.497E-02
   5.974  0.121E-01  0.402E-02  0.402E-02  0.402E-02
   5.984  0.953E-02  0.318E-02  0.318E-02  0.318E-02
   5.994  0.728E-02  0.243E-02  0.243E-02  0.243E-02
   6.004  0.534E-02  0.178E-02  0.178E-02  0.178E-02
   6.014  0.370E-02  0.123E-02  0.123E-02  0.123E-02
   6.024  0.236E-02  0.788E-03  0.788E-03  0.788E-03
   6.034  0.132E-02  0.441E-03  0.441E-03  0.441E-03
   6.044  0.583E-03  0.194E-03  0.194E-03  0.194E-03
   6.054  0.142E-03  0.473E-04  0.473E-04  0.473E-04
   6.064  0.000E+00  0.000E+00  0.000E+00  0.000E+00
   6.074  0.000E+00  0.000E+00  0.000E+00  0.000E+00
   6.084  0.000E+00  0.000E+00  0.000E+00  0.000E+00
   6.094  0.000E+00  0.000E+00  0.000E+00  0.000E+00
   6.104  0.000E+00  0.000E+00  0.000E+00  0.000E+00
   6.114  0.000E+00  0.000E+00  0.000E+00  0.000E+00
   6.124  0.000E+00  0.000E+00  0.000E+00  0.000E+00
   6.134  0.000E+00  0.000E+00  0.000E+00  0.000E+00
   6.144  0.000E+00  0.000E+00  0.000E+00  0.000E+00
   6.154  0.000E+00  0.000E+00  0.000E+00  0.000E+00
   6.164  0.000E+00  0.000E+00  0.000E+00  0.000E+00
   6.174  0.000E+00  0.000E+00  0.000E+00  0.000E+00
   6.184  0.000E+00  0.000E+00  0.000E+00  0.000E+00
   6.194  0.000E+00  0.000E+00  0.000E+00  0.000E+00
   6.204  0.000E+00  0.000E+00  0.000E+00  0.000E+00
   6.214  0.000E+00  0.000E+00  0.000E+00  0.000E+00
   6.224  0.000E+00  0.000E+00  0.000E+00  0.000E+00
   6.234  0.000E+00  0.000E+00  0.000E+00  0.000E+00
   6.244  0.000E+00  0.000E+00  0.000E+00  0.000E+00
   6.254  0.000E+00  0.000E+00  0.000E+00  0.000E+00
   6.264  0.000E+00  0.000E+00  0.000E+00  0.000E+00
   6.274  0.000E+00  0.000E+00  0.000E+00  0.000E+00
   6.284  0.000E+00  0.000E+00  0.000E+00  0.000E+00
   6.294  0.000E+00  0.000E+00  0.000E+00  0.000E+00
   6.304  0.000E+00  0.000E+00  0.000E+00  0.000E+00
   6.314  0.000E+00  0.000E+00  0.000E+00  0.000E+00
   6.324  0.000E+00  0.000E+00  0.000E+00  0.000E+00
   6.334  0.000E+00  0.000E+00  0.000E+00  0.000E+00
   6.344  0.000E+00  0.000E+00  0.000E+00  0.000E+00
   6.354  0.000E+00  0.000E+00  0.000E+00  0.000E+00
   6.364  0.000E+00  0.000E+00  0.000E+00  0.000E+00
   6.374  0.000E+00  0.000E+00  0.000E+00  0.000E+00
   6.384  0.000E+00  0.000E+00  0.000E+00  0.000E+00
   6.394  0.000E+00  0.000E+00  0.000E+00  0.000E+00
   6.404  0.000E+00  0.000E+00  0.000E+00  0.000E+00
   6.414  0.000E+00  0.000E+00  0.000E+00  0.000E+00
   6.424  0.000E+00  0.000E+00  0.000E+00  0.000E+00
   6.434  0.000E+00  0.000E+00  0.000E+00  0.000E+00
   6.444  0.000E+00  0.000E+00  0.000E+00  0.000E+00
   6.454  0.000E+00  0.000E+00  0.000E+00  0.000E+00
   6.464  0.000E+00  0.000E+00  0.000E+00  0.000E+00
   6.474  0.000E+00  0.000E+00  0.000E+00  0.000E+00
   6.484  0.000E+00  0.000E+00  0.000E+00  0.000E+00
   6.494  0.000E+00  0.000E+00  0.000E+00  0.000E+00
   6.504  0.000E+00  0.000E+00  0.000E+00  0.000E+00
   6.514  0.000E+00  0.000E+00  0.000E+00  0.000E+00
   6.524  0.000E+00  0.000E+00  0.000E+00  0.000E+00
   6.534  0.000E+00  0.000E+00  0.000E+00  0.000E+00
   6.544  0.000E+00  0.000E+00  0.000E+00  0.000E+00
   6.554  0.000E+00  0.000E+00  0.000E+00  0.000E+00
   6.564  0.000E+00  0.000E+00  0.000E+00  0.000E+00
   6.574  0.000E+00  0.000E+00  0.000E+00  0.000E+00
   6.584  0.762E-06  0.254E-06  0.254E-06  0.254E-06
   6.594  0.146E-03  0.487E-04  0.487E-04  0.487E-04
   6.604  0.543E-03  0.181E-03  0.181E-03  0.181E-03
   6.614  0.119E-02  0.396E-03  0.396E-03  0.396E-03
   6.624  0.208E-02  0.694E-03  0.694E-03  0.694E-03
   6.634  0.322E-02  0.107E-02  0.107E-02  0.107E-02
   6.644  0.461E-02  0.154E-02  0.154E-02  0.154E-02
   6.654  0.624E-02  0.208E-02  0.208E-02  0.208E-02
   6.664  0.812E-02  0.271E-02  0.271E-02  0.271E-02
   6.674  0.102E-01  0.341E-02  0.341E-02  0.341E-02
   6.684  0.126E-01  0.420E-02  0.420E-02  0.420E-02
   6.694  0.152E-01  0.506E-02  0.506E-02  0.506E-02
   6.704  0.180E-01  0.601E-02  0.601E-02  0.601E-02
   6.714  0.211E-01  0.703E-02  0.703E-02  0.703E-02
   6.724  0.244E-01  0.813E-02  0.813E-02  0.813E-02
   6.734  0.275E-01  0.916E-02  0.916E-02  0.916E-02
   6.744  0.301E-01  0.100E-01  0.100E-01  0.100E-01
   6.754  0.323E-01  0.108E-01  0.108E-01  0.108E-01
   6.764  0.339E-01  0.113E-01  0.113E-01  0.113E-01
   6.774  0.350E-01  0.117E-01  0.117E-01  0.117E-01
   6.784  0.356E-01  0.119E-01  0.119E-01  0.119E-01
   6.794  0.373E-01  0.124E-01  0.124E-01  0.124E-01
   6.804  0.393E-01  0.131E-01  0.131E-01  0.131E-01
   6.814  0.412E-01  0.137E-01  0.137E-01  0.137E-01
   6.824  0.432E-01  0.144E-01  0.144E-01  0.144E-01
   6.834  0.451E-01  0.150E-01  0.150E-01  0.150E-01
   6.844  0.470E-01  0.157E-01  0.157E-01  0.157E-01
   6.854  0.489E-01  0.163E-01  0.163E-01  0.163E-01
   6.864  0.508E-01  0.169E-01  0.169E-01  0.169E-01
   6.874  0.527E-01  0.176E-01  0.176E-01  0.176E-01
   6.884  0.546E-01  0.182E-01  0.182E-01  0.182E-01
   6.894  0.565E-01  0.188E-01  0.188E-01  0.188E-01
   6.904  0.583E-01  0.194E-01  0.194E-01  0.194E-01
   6.914  0.604E-01  0.201E-01  0.201E-01  0.201E-01
   6.924  0.626E-01  0.209E-01  0.209E-01  0.209E-01
   6.934  0.647E-01  0.216E-01  0.216E-01  0.216E-01
   6.944  0.668E-01  0.223E-01  0.223E-01  0.223E-01
   6.954  0.689E-01  0.230E-01  0.230E-01  0.230E-01
   6.964  0.709E-01  0.236E-01  0.236E-01  0.236E-01
   6.974  0.730E-01  0.243E-01  0.243E-01  0.243E-01
   6.984  0.751E-01  0.250E-01  0.250E-01  0.250E-01
   6.994  0.771E-01  0.257E-01  0.257E-01  0.257E-01
   7.004  0.792E-01  0.264E-01  0.264E-01  0.264E-01
   7.014  0.812E-01  0.271E-01  0.271E-01  0.271E-01
   7.024  0.833E-01  0.278E-01  0.278E-01  0.278E-01
   7.034  0.853E-01  0.284E-01  0.284E-01  0.284E-01
   7.044  0.873E-01  0.291E-01  0.291E-01  0.291E-01
   7.054  0.894E-01  0.298E-01  0.298E-01  0.298E-01
   7.064  0.914E-01  0.305E-01  0.305E-01  0.305E-01
   7.074  0.934E-01  0.311E-01  0.311E-01  0.311E-01
   7.084  0.954E-01  0.318E-01  0.318E-01  0.318E-01
   7.094  0.974E-01  0.325E-01  0.325E-01  0.325E-01
   7.104  0.995E-01  0.332E-01  0.332E-01  0.332E-01
   7.114  0.102E+00  0.339E-01  0.339E-01  0.339E-01
   7.124  0.104E+00  0.346E-01  0.346E-01  0.346E-01
   7.134  0.106E+00  0.353E-01  0.353E-01  0.353E-01
   7.144  0.108E+00  0.361E-01  0.361E-01  0.361E-01
   7.154  0.110E+00  0.368E-01  0.368E-01  0.368E-01
   7.164  0.113E+00  0.376E-01  0.376E-01  0.376E-01
   7.174  0.115E+00  0.383E-01  0.383E-01  0.383E-01
   7.184  0.117E+00  0.390E-01  0.390E-01  0.390E-01
   7.194  0.119E+00  0.397E-01  0.397E-01  0.397E-01
   7.204  0.121E+00  0.405E-01  0.405E-01  0.405E-01
   7.214  0.124E+00  0.412E-01  0.412E-01  0.412E-01
   7.224  0.126E+00  0.419E-01  0.419E-01  0.419E-01
   7.234  0.128E+00  0.426E-01  0.426E-01  0.426E-01
   7.244  0.130E+00  0.434E-01  0.434E-01  0.434E-01
   7.254  0.132E+00  0.441E-01  0.441E-01  0.441E-01
   7.264  0.135E+00  0.449E-01  0.449E-01  0.449E-01
   7.274  0.137E+00  0.457E-01  0.457E-01  0.457E-01
   7.284  0.140E+00  0.465E-01  0.465E-01  0.465E-01
   7.294  0.142E+00  0.473E-01  0.473E-01  0.473E-01
   7.304  0.144E+00  0.482E-01  0.482E-01  0.482E-01
   7.314  0.147E+00  0.490E-01  0.490E-01  0.490E-01
   7.324  0.150E+00  0.498E-01  0.498E-01  0.498E-01
   7.334  0.152E+00  0.507E-01  0.507E-01  0.507E-01
   7.344  0.155E+00  0.516E-01  0.516E-01  0.516E-01
   7.354  0.157E+00  0.525E-01  0.525E-01  0.525E-01
   7.364  0.160E+00  0.532E-01  0.532E-01  0.532E-01
   7.374  0.161E+00  0.538E-01  0.538E-01  0.538E-01
   7.384  0.163E+00  0.543E-01  0.543E-01  0.543E-01
   7.394  0.164E+00  0.547E-01  0.547E-01  0.547E-01
   7.404  0.166E+00  0.552E-01  0.552E-01  0.552E-01
   7.414  0.167E+00  0.556E-01  0.556E-01  0.556E-01
   7.424  0.168E+00  0.560E-01  0.560E-01  0.560E-01
   7.434  0.169E+00  0.565E-01  0.565E-01  0.565E-01
   7.444  0.171E+00  0.569E-01  0.569E-01  0.569E-01
   7.454  0.172E+00  0.572E-01  0.572E-01  0.572E-01
   7.464  0.173E+00  0.576E-01  0.576E-01  0.576E-01
   7.474  0.174E+00  0.579E-01  0.579E-01  0.579E-01
   7.484  0.175E+00  0.583E-01  0.583E-01  0.583E-01
   7.494  0.176E+00  0.586E-01  0.586E-01  0.586E-01
   7.504  0.176E+00  0.588E-01  0.588E-01  0.588E-01
   7.514  0.177E+00  0.591E-01  0.591E-01  0.591E-01
   7.524  0.178E+00  0.593E-01  0.593E-01  0.593E-01
   7.534  0.179E+00  0.595E-01  0.595E-01  0.595E-01
   7.544  0.180E+00  0.600E-01  0.600E-01  0.600E-01
   7.554  0.181E+00  0.605E-01  0.605E-01  0.605E-01
   7.564  0.183E+00  0.610E-01  0.610E-01  0.610E-01
   7.574  0.184E+00  0.615E-01  0.615E-01  0.615E-01
   7.584  0.186E+00  0.620E-01  0.620E-01  0.620E-01
   7.594  0.188E+00  0.625E-01  0.625E-01  0.625E-01
   7.604  0.189E+00  0.631E-01  0.631E-01  0.631E-01
   7.614  0.191E+00  0.637E-01  0.637E-01  0.637E-01
   7.624  0.193E+00  0.643E-01  0.643E-01  0.643E-01
   7.634  0.195E+00  0.649E-01  0.649E-01  0.649E-01
   7.644  0.197E+00  0.655E-01  0.655E-01  0.655E-01
   7.654  0.198E+00  0.661E-01  0.661E-01  0.661E-01
   7.664  0.200E+00  0.668E-01  0.668E-01  0.668E-01
   7.674  0.202E+00  0.674E-01  0.674E-01  0.674E-01
   7.684  0.204E+00  0.681E-01  0.681E-01  0.681E-01
   7.694  0.206E+00  0.688E-01  0.688E-01  0.688E-01
   7.704  0.208E+00  0.695E-01  0.695E-01  0.695E-01
   7.714  0.210E+00  0.702E-01  0.702E-01  0.702E-01
   7.724  0.213E+00  0.709E-01  0.709E-01  0.709E-01
   7.734  0.215E+00  0.716E-01  0.716E-01  0.716E-01
   7.744  0.217E+00  0.723E-01  0.723E-01  0.723E-01
   7.754  0.219E+00  0.730E-01  0.730E-01  0.730E-01
   7.764  0.221E+00  0.738E-01  0.738E-01  0.738E-01
   7.774  0.224E+00  0.746E-01  0.746E-01  0.746E-01
   7.784  0.226E+00  0.754E-01  0.754E-01  0.754E-01
   7.794  0.229E+00  0.762E-01  0.762E-01  0.762E-01
   7.804  0.231E+00  0.771E-01  0.771E-01  0.771E-01
   7.814  0.234E+00  0.780E-01  0.780E-01  0.780E-01
   7.824  0.237E+00  0.789E-01  0.789E-01  0.789E-01
   7.834  0.239E+00  0.798E-01  0.798E-01  0.798E-01
   7.844  0.242E+00  0.807E-01  0.807E-01  0.807E-01
   7.854  0.245E+00  0.816E-01  0.816E-01  0.816E-01
   7.864  0.248E+00  0.826E-01  0.826E-01  0.826E-01
   7.874  0.251E+00  0.836E-01  0.836E-01  0.836E-01
   7.884  0.254E+00  0.846E-01  0.846E-01  0.846E-01
   7.894  0.257E+00  0.856E-01  0.856E-01  0.856E-01
   7.904  0.260E+00  0.866E-01  0.866E-01  0.866E-01
   7.914  0.263E+00  0.876E-01  0.876E-01  0.876E-01
   7.924  0.266E+00  0.887E-01  0.887E-01  0.887E-01
   7.934  0.269E+00  0.897E-01  0.897E-01  0.897E-01
   7.944  0.272E+00  0.908E-01  0.908E-01  0.908E-01
   7.954  0.276E+00  0.918E-01  0.918E-01  0.918E-01
   7.964  0.279E+00  0.929E-01  0.929E-01  0.929E-01
   7.974  0.282E+00  0.940E-01  0.940E-01  0.940E-01
   7.984  0.285E+00  0.951E-01  0.951E-01  0.951E-01
   7.994  0.289E+00  0.963E-01  0.963E-01  0.963E-01
   8.004  0.292E+00  0.974E-01  0.974E-01  0.974E-01
   8.014  0.296E+00  0.987E-01  0.987E-01  0.987E-01
   8.024  0.300E+00  0.999E-01  0.999E-01  0.999E-01
   8.034  0.304E+00  0.101E+00  0.101E+00  0.101E+00
   8.044  0.308E+00  0.103E+00  0.103E+00  0.103E+00
   8.054  0.313E+00  0.104E+00  0.104E+00  0.104E+00
   8.064  0.319E+00  0.106E+00  0.106E+00  0.106E+00
   8.074  0.328E+00  0.109E+00  0.109E+00  0.109E+00
   8.084  0.338E+00  0.113E+00  0.113E+00  0.113E+00
   8.094  0.348E+00  0.116E+00  0.116E+00  0.116E+00
   8.104  0.358E+00  0.119E+00  0.119E+00  0.119E+00
   8.114  0.367E+00  0.122E+00  0.122E+00  0.122E+00
   8.124  0.375E+00  0.125E+00  0.125E+00  0.125E+00
   8.134  0.383E+00  0.128E+00  0.128E+00  0.128E+00
   8.144  0.389E+00  0.130E+00  0.130E+00  0.130E+00
   8.154  0.395E+00  0.132E+00  0.132E+00  0.132E+00
   8.164  0.401E+00  0.134E+00  0.134E+00  0.134E+00
   8.174  0.406E+00  0.135E+00  0.135E+00  0.135E+00
   8.184  0.411E+00  0.137E+00  0.137E+00  0.137E+00
   8.194  0.416E+00  0.139E+00  0.139E+00  0.139E+00
   8.204  0.420E+00  0.140E+00  0.140E+00  0.140E+00
   8.214  0.425E+00  0.142E+00  0.142E+00  0.142E+00
   8.224  0.429E+00  0.143E+00  0.143E+00  0.143E+00
   8.234  0.433E+00  0.144E+00  0.144E+00  0.144E+00
   8.244  0.436E+00  0.145E+00  0.145E+00  0.145E+00
   8.254  0.440E+00  0.147E+00  0.147E+00  0.147E+00
   8.264  0.444E+00  0.148E+00  0.148E+00  0.148E+00
   8.274  0.447E+00  0.149E+00  0.149E+00  0.149E+00
   8.284  0.450E+00  0.150E+00  0.150E+00  0.150E+00
   8.294  0.454E+00  0.151E+00  0.151E+00  0.151E+00
   8.304  0.457E+00  0.152E+00  0.152E+00  0.152E+00
   8.314  0.460E+00  0.153E+00  0.153E+00  0.153E+00
   8.324  0.463E+00  0.154E+00  0.154E+00  0.154E+00
   8.334  0.466E+00  0.155E+00  0.155E+00  0.155E+00
   8.344  0.470E+00  0.157E+00  0.157E+00  0.157E+00
   8.354  0.476E+00  0.159E+00  0.159E+00  0.159E+00
   8.364  0.485E+00  0.162E+00  0.162E+00  0.162E+00
   8.374  0.496E+00  0.165E+00  0.165E+00  0.165E+00
   8.384  0.509E+00  0.170E+00  0.170E+00  0.170E+00
   8.394  0.520E+00  0.173E+00  0.173E+00  0.173E+00
   8.404  0.532E+00  0.177E+00  0.177E+00  0.177E+00
   8.414  0.543E+00  0.181E+00  0.181E+00  0.181E+00
   8.424  0.554E+00  0.185E+00  0.185E+00  0.185E+00
   8.434  0.562E+00  0.187E+00  0.187E+00  0.187E+00
   8.444  0.569E+00  0.190E+00  0.190E+00  0.190E+00
   8.454  0.574E+00  0.191E+00  0.191E+00  0.191E+00
   8.464  0.577E+00  0.192E+00  0.192E+00  0.192E+00
   8.474  0.578E+00  0.193E+00  0.193E+00  0.193E+00
   8.484  0.579E+00  0.193E+00  0.193E+00  0.193E+00
   8.494  0.579E+00  0.193E+00  0.193E+00  0.193E+00
   8.504  0.578E+00  0.193E+00  0.193E+00  0.193E+00
   8.514  0.577E+00  0.192E+00  0.192E+00  0.192E+00
   8.524  0.575E+00  0.192E+00  0.192E+00  0.192E+00
   8.534  0.572E+00  0.191E+00  0.191E+00  0.191E+00
   8.544  0.568E+00  0.189E+00  0.189E+00  0.189E+00
   8.554  0.564E+00  0.188E+00  0.188E+00  0.188E+00
   8.564  0.560E+00  0.187E+00  0.187E+00  0.187E+00
   8.574  0.554E+00  0.185E+00  0.185E+00  0.185E+00
   8.584  0.548E+00  0.183E+00  0.183E+00  0.183E+00
   8.594  0.541E+00  0.180E+00  0.180E+00  0.180E+00
   8.604  0.534E+00  0.178E+00  0.178E+00  0.178E+00
   8.614  0.526E+00  0.175E+00  0.175E+00  0.175E+00
   8.624  0.510E+00  0.170E+00  0.170E+00  0.170E+00
   8.634  0.477E+00  0.159E+00  0.159E+00  0.159E+00
   8.644  0.446E+00  0.149E+00  0.149E+00  0.149E+00
   8.654  0.431E+00  0.144E+00  0.144E+00  0.144E+00
   8.664  0.422E+00  0.141E+00  0.141E+00  0.141E+00
   8.674  0.414E+00  0.138E+00  0.138E+00  0.138E+00
   8.684  0.406E+00  0.135E+00  0.135E+00  0.135E+00
   8.694  0.399E+00  0.133E+00  0.133E+00  0.133E+00
   8.704  0.391E+00  0.130E+00  0.130E+00  0.130E+00
   8.714  0.385E+00  0.128E+00  0.128E+00  0.128E+00
   8.724  0.378E+00  0.126E+00  0.126E+00  0.126E+00
   8.734  0.372E+00  0.124E+00  0.124E+00  0.124E+00
   8.744  0.367E+00  0.122E+00  0.122E+00  0.122E+00
   8.754  0.359E+00  0.120E+00  0.120E+00  0.120E+00
   8.764  0.352E+00  0.117E+00  0.117E+00  0.117E+00
   8.774  0.346E+00  0.115E+00  0.115E+00  0.115E+00
   8.784  0.340E+00  0.113E+00  0.113E+00  0.113E+00
   8.794  0.335E+00  0.112E+00  0.112E+00  0.112E+00
   8.804  0.330E+00  0.110E+00  0.110E+00  0.110E+00
   8.814  0.326E+00  0.109E+00  0.109E+00  0.109E+00
   8.824  0.323E+00  0.108E+00  0.108E+00  0.108E+00
   8.834  0.320E+00  0.107E+00  0.107E+00  0.107E+00
   8.844  0.319E+00  0.106E+00  0.106E+00  0.106E+00
   8.854  0.318E+00  0.106E+00  0.106E+00  0.106E+00
   8.864  0.317E+00  0.106E+00  0.106E+00  0.106E+00
   8.874  0.317E+00  0.106E+00  0.106E+00  0.106E+00
   8.884  0.317E+00  0.106E+00  0.106E+00  0.106E+00
   8.894  0.316E+00  0.105E+00  0.105E+00  0.105E+00
   8.904  0.315E+00  0.105E+00  0.105E+00  0.105E+00
   8.914  0.314E+00  0.105E+00  0.105E+00  0.105E+00
   8.924  0.312E+00  0.104E+00  0.104E+00  0.104E+00
   8.934  0.310E+00  0.103E+00  0.103E+00  0.103E+00
   8.944  0.307E+00  0.102E+00  0.102E+00  0.102E+00
   8.954  0.305E+00  0.102E+00  0.102E+00  0.102E+00
   8.964  0.302E+00  0.101E+00  0.101E+00  0.101E+00
   8.974  0.298E+00  0.994E-01  0.994E-01  0.994E-01
   8.984  0.295E+00  0.982E-01  0.982E-01  0.982E-01
   8.994  0.291E+00  0.969E-01  0.969E-01  0.969E-01
   9.004  0.287E+00  0.956E-01  0.956E-01  0.956E-01
   9.014  0.282E+00  0.940E-01  0.940E-01  0.940E-01
   9.024  0.276E+00  0.921E-01  0.921E-01  0.921E-01
   9.034  0.271E+00  0.902E-01  0.902E-01  0.902E-01
   9.044  0.265E+00  0.885E-01  0.885E-01  0.885E-01
   9.054  0.262E+00  0.873E-01  0.873E-01  0.873E-01
   9.064  0.259E+00  0.864E-01  0.864E-01  0.864E-01
   9.074  0.256E+00  0.855E-01  0.855E-01  0.855E-01
   9.084  0.254E+00  0.847E-01  0.847E-01  0.847E-01
   9.094  0.252E+00  0.839E-01  0.839E-01  0.839E-01
   9.104  0.250E+00  0.833E-01  0.833E-01  0.833E-01
   9.114  0.248E+00  0.828E-01  0.828E-01  0.828E-01
   9.124  0.247E+00  0.823E-01  0.823E-01  0.823E-01
   9.134  0.246E+00  0.820E-01  0.820E-01  0.820E-01
   9.144  0.245E+00  0.818E-01  0.818E-01  0.818E-01
   9.154  0.245E+00  0.817E-01  0.817E-01  0.817E-01
   9.164  0.246E+00  0.819E-01  0.819E-01  0.819E-01
   9.174  0.248E+00  0.826E-01  0.826E-01  0.826E-01
   9.184  0.252E+00  0.839E-01  0.839E-01  0.839E-01
   9.194  0.257E+00  0.856E-01  0.856E-01  0.856E-01
   9.204  0.264E+00  0.880E-01  0.880E-01  0.880E-01
   9.214  0.272E+00  0.906E-01  0.906E-01  0.906E-01
   9.224  0.281E+00  0.936E-01  0.936E-01  0.936E-01
   9.234  0.302E+00  0.101E+00  0.101E+00  0.101E+00
   9.244  0.380E+00  0.127E+00  0.127E+00  0.127E+00
   9.254  0.513E+00  0.171E+00  0.171E+00  0.171E+00
   9.264  0.497E+00  0.166E+00  0.166E+00  0.166E+00
   9.274  0.372E+00  0.124E+00  0.124E+00  0.124E+00
   9.284  0.391E+00  0.130E+00  0.130E+00  0.130E+00
   9.294  0.412E+00  0.137E+00  0.137E+00  0.137E+00
   9.304  0.436E+00  0.145E+00  0.145E+00  0.145E+00
   9.314  0.463E+00  0.154E+00  0.154E+00  0.154E+00
   9.324  0.486E+00  0.162E+00  0.162E+00  0.162E+00
   9.334  0.509E+00  0.170E+00  0.170E+00  0.170E+00
   9.344  0.532E+00  0.177E+00  0.177E+00  0.177E+00
   9.354  0.555E+00  0.185E+00  0.185E+00  0.185E+00
   9.364  0.578E+00  0.193E+00  0.193E+00  0.193E+00
   9.374  0.599E+00  0.200E+00  0.200E+00  0.200E+00
   9.384  0.619E+00  0.206E+00  0.206E+00  0.206E+00
   9.394  0.635E+00  0.212E+00  0.212E+00  0.212E+00
   9.404  0.649E+00  0.216E+00  0.216E+00  0.216E+00
   9.414  0.660E+00  0.220E+00  0.220E+00  0.220E+00
   9.424  0.664E+00  0.221E+00  0.221E+00  0.221E+00
   9.434  0.662E+00  0.221E+00  0.221E+00  0.221E+00
   9.444  0.664E+00  0.221E+00  0.221E+00  0.221E+00
   9.454  0.675E+00  0.225E+00  0.225E+00  0.225E+00
   9.464  0.692E+00  0.231E+00  0.231E+00  0.231E+00
   9.474  0.709E+00  0.236E+00  0.236E+00  0.236E+00
   9.484  0.723E+00  0.241E+00  0.241E+00  0.241E+00
   9.494  0.734E+00  0.245E+00  0.245E+00  0.245E+00
   9.504  0.742E+00  0.247E+00  0.247E+00  0.247E+00
   9.514  0.747E+00  0.249E+00  0.249E+00  0.249E+00
   9.524  0.749E+00  0.250E+00  0.250E+00  0.250E+00
   9.534  0.748E+00  0.249E+00  0.249E+00  0.249E+00
   9.544  0.740E+00  0.247E+00  0.247E+00  0.247E+00
   9.554  0.816E+00  0.272E+00  0.272E+00  0.272E+00
   9.564  0.756E+00  0.252E+00  0.252E+00  0.252E+00
   9.574  0.702E+00  0.234E+00  0.234E+00  0.234E+00
   9.584  0.658E+00  0.219E+00  0.219E+00  0.219E+00
   9.594  0.622E+00  0.207E+00  0.207E+00  0.207E+00
   9.604  0.600E+00  0.200E+00  0.200E+00  0.200E+00
   9.614  0.594E+00  0.198E+00  0.198E+00  0.198E+00
   9.624  0.599E+00  0.200E+00  0.200E+00  0.200E+00
   9.634  0.604E+00  0.201E+00  0.201E+00  0.201E+00
   9.644  0.606E+00  0.202E+00  0.202E+00  0.202E+00
   9.654  0.607E+00  0.202E+00  0.202E+00  0.202E+00
   9.664  0.607E+00  0.202E+00  0.202E+00  0.202E+00
   9.674  0.607E+00  0.202E+00  0.202E+00  0.202E+00
   9.684  0.607E+00  0.202E+00  0.202E+00  0.202E+00
   9.694  0.608E+00  0.203E+00  0.203E+00  0.203E+00
   9.704  0.608E+00  0.203E+00  0.203E+00  0.203E+00
   9.714  0.608E+00  0.203E+00  0.203E+00  0.203E+00
   9.724  0.609E+00  0.203E+00  0.203E+00  0.203E+00
   9.734  0.609E+00  0.203E+00  0.203E+00  0.203E+00
   9.744  0.609E+00  0.203E+00  0.203E+00  0.203E+00
   9.754  0.608E+00  0.203E+00  0.203E+00  0.203E+00
   9.764  0.606E+00  0.202E+00  0.202E+00  0.202E+00
   9.774  0.605E+00  0.202E+00  0.202E+00  0.202E+00
   9.784  0.606E+00  0.202E+00  0.202E+00  0.202E+00
   9.794  0.603E+00  0.201E+00  0.201E+00  0.201E+00
   9.804  0.597E+00  0.199E+00  0.199E+00  0.199E+00
   9.814  0.591E+00  0.197E+00  0.197E+00  0.197E+00
   9.824  0.584E+00  0.195E+00  0.195E+00  0.195E+00
   9.834  0.577E+00  0.192E+00  0.192E+00  0.192E+00
   9.844  0.570E+00  0.190E+00  0.190E+00  0.190E+00
   9.854  0.563E+00  0.188E+00  0.188E+00  0.188E+00
   9.864  0.555E+00  0.185E+00  0.185E+00  0.185E+00
   9.874  0.547E+00  0.182E+00  0.182E+00  0.182E+00
   9.884  0.539E+00  0.180E+00  0.180E+00  0.180E+00
   9.894  0.530E+00  0.177E+00  0.177E+00  0.177E+00
   9.904  0.522E+00  0.174E+00  0.174E+00  0.174E+00
   9.914  0.513E+00  0.171E+00  0.171E+00  0.171E+00
   9.924  0.503E+00  0.168E+00  0.168E+00  0.168E+00
   9.934  0.494E+00  0.165E+00  0.165E+00  0.165E+00
   9.944  0.484E+00  0.161E+00  0.161E+00  0.161E+00
   9.954  0.475E+00  0.158E+00  0.158E+00  0.158E+00
   9.964  0.465E+00  0.155E+00  0.155E+00  0.155E+00
   9.974  0.457E+00  0.152E+00  0.152E+00  0.152E+00
   9.984  0.451E+00  0.150E+00  0.150E+00  0.150E+00
   9.994  0.444E+00  0.148E+00  0.148E+00  0.148E+00
  10.004  0.438E+00  0.146E+00  0.146E+00  0.146E+00
  10.014  0.432E+00  0.144E+00  0.144E+00  0.144E+00
  10.024  0.426E+00  0.142E+00  0.142E+00  0.142E+00
  10.034  0.421E+00  0.140E+00  0.140E+00  0.140E+00
  10.044  0.415E+00  0.138E+00  0.138E+00  0.138E+00
  10.054  0.410E+00  0.137E+00  0.137E+00  0.137E+00
  10.064  0.405E+00  0.135E+00  0.135E+00  0.135E+00
  10.074  0.401E+00  0.134E+00  0.134E+00  0.134E+00
  10.084  0.396E+00  0.132E+00  0.132E+00  0.132E+00
  10.094  0.392E+00  0.131E+00  0.131E+00  0.131E+00
  10.104  0.389E+00  0.130E+00  0.130E+00  0.130E+00
  10.114  0.386E+00  0.129E+00  0.129E+00  0.129E+00
  10.124  0.383E+00  0.128E+00  0.128E+00  0.128E+00
  10.134  0.380E+00  0.127E+00  0.127E+00  0.127E+00
  10.144  0.379E+00  0.126E+00  0.126E+00  0.126E+00
  10.154  0.378E+00  0.126E+00  0.126E+00  0.126E+00
  10.164  0.377E+00  0.126E+00  0.126E+00  0.126E+00
  10.174  0.376E+00  0.125E+00  0.125E+00  0.125E+00
  10.184  0.375E+00  0.125E+00  0.125E+00  0.125E+00
  10.194  0.375E+00  0.125E+00  0.125E+00  0.125E+00
  10.204  0.374E+00  0.125E+00  0.125E+00  0.125E+00
  10.214  0.374E+00  0.125E+00  0.125E+00  0.125E+00
  10.224  0.374E+00  0.125E+00  0.125E+00  0.125E+00
  10.234  0.375E+00  0.125E+00  0.125E+00  0.125E+00
  10.244  0.376E+00  0.125E+00  0.125E+00  0.125E+00
  10.254  0.376E+00  0.125E+00  0.125E+00  0.125E+00
  10.264  0.375E+00  0.125E+00  0.125E+00  0.125E+00
  10.274  0.373E+00  0.124E+00  0.124E+00  0.124E+00
  10.284  0.371E+00  0.124E+00  0.124E+00  0.124E+00
  10.294  0.373E+00  0.124E+00  0.124E+00  0.124E+00
  10.304  0.402E+00  0.134E+00  0.134E+00  0.134E+00
  10.314  0.414E+00  0.138E+00  0.138E+00  0.138E+00
  10.324  0.404E+00  0.135E+00  0.135E+00  0.135E+00
  10.334  0.393E+00  0.131E+00  0.131E+00  0.131E+00
  10.344  0.384E+00  0.128E+00  0.128E+00  0.128E+00
  10.354  0.375E+00  0.125E+00  0.125E+00  0.125E+00
  10.364  0.367E+00  0.122E+00  0.122E+00  0.122E+00
  10.374  0.360E+00  0.120E+00  0.120E+00  0.120E+00
  10.384  0.353E+00  0.118E+00  0.118E+00  0.118E+00
  10.394  0.347E+00  0.116E+00  0.116E+00  0.116E+00
  10.404  0.341E+00  0.114E+00  0.114E+00  0.114E+00
  10.414  0.336E+00  0.112E+00  0.112E+00  0.112E+00
  10.424  0.332E+00  0.111E+00  0.111E+00  0.111E+00
  10.434  0.329E+00  0.110E+00  0.110E+00  0.110E+00
  10.444  0.326E+00  0.109E+00  0.109E+00  0.109E+00
  10.454  0.324E+00  0.108E+00  0.108E+00  0.108E+00
  10.464  0.322E+00  0.107E+00  0.107E+00  0.107E+00
  10.474  0.322E+00  0.107E+00  0.107E+00  0.107E+00
  10.484  0.321E+00  0.107E+00  0.107E+00  0.107E+00
  10.494  0.321E+00  0.107E+00  0.107E+00  0.107E+00
  10.504  0.322E+00  0.107E+00  0.107E+00  0.107E+00
  10.514  0.322E+00  0.107E+00  0.107E+00  0.107E+00
  10.524  0.323E+00  0.108E+00  0.108E+00  0.108E+00
  10.534  0.323E+00  0.108E+00  0.108E+00  0.108E+00
  10.544  0.324E+00  0.108E+00  0.108E+00  0.108E+00
  10.554  0.324E+00  0.108E+00  0.108E+00  0.108E+00
  10.564  0.327E+00  0.109E+00  0.109E+00  0.109E+00
  10.574  0.341E+00  0.114E+00  0.114E+00  0.114E+00
  10.584  0.369E+00  0.123E+00  0.123E+00  0.123E+00
  10.594  0.414E+00  0.138E+00  0.138E+00  0.138E+00
  10.604  0.458E+00  0.153E+00  0.153E+00  0.153E+00
  10.614  0.474E+00  0.158E+00  0.158E+00  0.158E+00
  10.624  0.480E+00  0.160E+00  0.160E+00  0.160E+00
  10.634  0.479E+00  0.160E+00  0.160E+00  0.160E+00
  10.644  0.472E+00  0.157E+00  0.157E+00  0.157E+00
  10.654  0.459E+00  0.153E+00  0.153E+00  0.153E+00
  10.664  0.442E+00  0.147E+00  0.147E+00  0.147E+00
  10.674  0.424E+00  0.141E+00  0.141E+00  0.141E+00
  10.684  0.412E+00  0.137E+00  0.137E+00  0.137E+00
  10.694  0.406E+00  0.135E+00  0.135E+00  0.135E+00
  10.704  0.402E+00  0.134E+00  0.134E+00  0.134E+00
  10.714  0.396E+00  0.132E+00  0.132E+00  0.132E+00
  10.724  0.389E+00  0.130E+00  0.130E+00  0.130E+00
  10.734  0.381E+00  0.127E+00  0.127E+00  0.127E+00
  10.744  0.373E+00  0.124E+00  0.124E+00  0.124E+00
  10.754  0.364E+00  0.121E+00  0.121E+00  0.121E+00
  10.764  0.355E+00  0.118E+00  0.118E+00  0.118E+00
  10.774  0.346E+00  0.115E+00  0.115E+00  0.115E+00
  10.784  0.337E+00  0.112E+00  0.112E+00  0.112E+00
  10.794  0.329E+00  0.110E+00  0.110E+00  0.110E+00
  10.804  0.321E+00  0.107E+00  0.107E+00  0.107E+00
  10.814  0.313E+00  0.104E+00  0.104E+00  0.104E+00
  10.824  0.307E+00  0.102E+00  0.102E+00  0.102E+00
  10.834  0.301E+00  0.100E+00  0.100E+00  0.100E+00
  10.844  0.297E+00  0.990E-01  0.990E-01  0.990E-01
  10.854  0.294E+00  0.981E-01  0.981E-01  0.981E-01
  10.864  0.293E+00  0.978E-01  0.978E-01  0.978E-01
  10.874  0.293E+00  0.978E-01  0.978E-01  0.978E-01
  10.884  0.294E+00  0.980E-01  0.980E-01  0.980E-01
  10.894  0.282E+00  0.940E-01  0.940E-01  0.940E-01
  10.904  0.273E+00  0.908E-01  0.908E-01  0.908E-01
  10.914  0.265E+00  0.885E-01  0.885E-01  0.885E-01
  10.924  0.261E+00  0.869E-01  0.869E-01  0.869E-01
  10.934  0.267E+00  0.889E-01  0.889E-01  0.889E-01
  10.944  0.278E+00  0.925E-01  0.925E-01  0.925E-01
  10.954  0.286E+00  0.953E-01  0.953E-01  0.953E-01
  10.964  0.288E+00  0.961E-01  0.961E-01  0.961E-01
  10.974  0.290E+00  0.966E-01  0.966E-01  0.966E-01
  10.984  0.291E+00  0.970E-01  0.970E-01  0.970E-01
  10.994  0.292E+00  0.974E-01  0.974E-01  0.974E-01
  11.004  0.293E+00  0.978E-01  0.978E-01  0.978E-01
  11.014  0.294E+00  0.981E-01  0.981E-01  0.981E-01
  11.024  0.295E+00  0.985E-01  0.985E-01  0.985E-01
  11.034  0.309E+00  0.103E+00  0.103E+00  0.103E+00
  11.044  0.327E+00  0.109E+00  0.109E+00  0.109E+00
  11.054  0.342E+00  0.114E+00  0.114E+00  0.114E+00
  11.064  0.354E+00  0.118E+00  0.118E+00  0.118E+00
  11.074  0.362E+00  0.121E+00  0.121E+00  0.121E+00
  11.084  0.366E+00  0.122E+00  0.122E+00  0.122E+00
  11.094  0.366E+00  0.122E+00  0.122E+00  0.122E+00
  11.104  0.362E+00  0.121E+00  0.121E+00  0.121E+00
  11.114  0.355E+00  0.118E+00  0.118E+00  0.118E+00
  11.124  0.342E+00  0.114E+00  0.114E+00  0.114E+00
  11.134  0.326E+00  0.109E+00  0.109E+00  0.109E+00
  11.144  0.318E+00  0.106E+00  0.106E+00  0.106E+00
  11.154  0.317E+00  0.106E+00  0.106E+00  0.106E+00
  11.164  0.316E+00  0.105E+00  0.105E+00  0.105E+00
  11.174  0.316E+00  0.105E+00  0.105E+00  0.105E+00
  11.184  0.315E+00  0.105E+00  0.105E+00  0.105E+00
  11.194  0.315E+00  0.105E+00  0.105E+00  0.105E+00
  11.204  0.314E+00  0.105E+00  0.105E+00  0.105E+00
  11.214  0.314E+00  0.105E+00  0.105E+00  0.105E+00
  11.224  0.314E+00  0.105E+00  0.105E+00  0.105E+00
  11.234  0.314E+00  0.105E+00  0.105E+00  0.105E+00
  11.244  0.314E+00  0.105E+00  0.105E+00  0.105E+00
  11.254  0.314E+00  0.105E+00  0.105E+00  0.105E+00
  11.264  0.314E+00  0.105E+00  0.105E+00  0.105E+00
  11.274  0.315E+00  0.105E+00  0.105E+00  0.105E+00
  11.284  0.315E+00  0.105E+00  0.105E+00  0.105E+00
  11.294  0.316E+00  0.105E+00  0.105E+00  0.105E+00
  11.304  0.316E+00  0.105E+00  0.105E+00  0.105E+00
  11.314  0.317E+00  0.106E+00  0.106E+00  0.106E+00
  11.324  0.316E+00  0.105E+00  0.105E+00  0.105E+00
  11.334  0.316E+00  0.105E+00  0.105E+00  0.105E+00
  11.344  0.315E+00  0.105E+00  0.105E+00  0.105E+00
  11.354  0.315E+00  0.105E+00  0.105E+00  0.105E+00
  11.364  0.314E+00  0.105E+00  0.105E+00  0.105E+00
  11.374  0.314E+00  0.105E+00  0.105E+00  0.105E+00
  11.384  0.313E+00  0.104E+00  0.104E+00  0.104E+00
  11.394  0.312E+00  0.104E+00  0.104E+00  0.104E+00
  11.404  0.312E+00  0.104E+00  0.104E+00  0.104E+00
  11.414  0.311E+00  0.104E+00  0.104E+00  0.104E+00
  11.424  0.309E+00  0.103E+00  0.103E+00  0.103E+00
  11.434  0.308E+00  0.103E+00  0.103E+00  0.103E+00
  11.444  0.307E+00  0.102E+00  0.102E+00  0.102E+00
  11.454  0.304E+00  0.101E+00  0.101E+00  0.101E+00
  11.464  0.301E+00  0.100E+00  0.100E+00  0.100E+00
  11.474  0.299E+00  0.998E-01  0.998E-01  0.998E-01
  11.484  0.298E+00  0.992E-01  0.992E-01  0.992E-01
  11.494  0.296E+00  0.987E-01  0.987E-01  0.987E-01
  11.504  0.295E+00  0.983E-01  0.983E-01  0.983E-01
  11.514  0.294E+00  0.980E-01  0.980E-01  0.980E-01
  11.524  0.294E+00  0.979E-01  0.979E-01  0.979E-01
  11.534  0.294E+00  0.979E-01  0.979E-01  0.979E-01
  11.544  0.294E+00  0.979E-01  0.979E-01  0.979E-01
  11.554  0.294E+00  0.980E-01  0.980E-01  0.980E-01
  11.564  0.295E+00  0.982E-01  0.982E-01  0.982E-01
  11.574  0.295E+00  0.984E-01  0.984E-01  0.984E-01
  11.584  0.296E+00  0.987E-01  0.987E-01  0.987E-01
  11.594  0.297E+00  0.990E-01  0.990E-01  0.990E-01
  11.604  0.298E+00  0.994E-01  0.994E-01  0.994E-01
  11.614  0.300E+00  0.999E-01  0.999E-01  0.999E-01
  11.624  0.301E+00  0.100E+00  0.100E+00  0.100E+00
  11.634  0.303E+00  0.101E+00  0.101E+00  0.101E+00
  11.644  0.305E+00  0.102E+00  0.102E+00  0.102E+00
  11.654  0.307E+00  0.102E+00  0.102E+00  0.102E+00
  11.664  0.310E+00  0.103E+00  0.103E+00  0.103E+00
  11.674  0.312E+00  0.104E+00  0.104E+00  0.104E+00
  11.684  0.314E+00  0.105E+00  0.105E+00  0.105E+00
  11.694  0.315E+00  0.105E+00  0.105E+00  0.105E+00
  11.704  0.316E+00  0.105E+00  0.105E+00  0.105E+00
  11.714  0.316E+00  0.105E+00  0.105E+00  0.105E+00
  11.724  0.316E+00  0.105E+00  0.105E+00  0.105E+00
  11.734  0.315E+00  0.105E+00  0.105E+00  0.105E+00
  11.744  0.314E+00  0.105E+00  0.105E+00  0.105E+00
  11.754  0.312E+00  0.104E+00  0.104E+00  0.104E+00
  11.764  0.310E+00  0.103E+00  0.103E+00  0.103E+00
  11.774  0.308E+00  0.103E+00  0.103E+00  0.103E+00
  11.784  0.306E+00  0.102E+00  0.102E+00  0.102E+00
  11.794  0.305E+00  0.102E+00  0.102E+00  0.102E+00
  11.804  0.303E+00  0.101E+00  0.101E+00  0.101E+00
  11.814  0.301E+00  0.100E+00  0.100E+00  0.100E+00
  11.824  0.299E+00  0.995E-01  0.995E-01  0.995E-01
  11.834  0.296E+00  0.988E-01  0.988E-01  0.988E-01
  11.844  0.294E+00  0.982E-01  0.982E-01  0.982E-01
  11.854  0.293E+00  0.975E-01  0.975E-01  0.975E-01
  11.864  0.291E+00  0.971E-01  0.971E-01  0.971E-01
  11.874  0.290E+00  0.968E-01  0.968E-01  0.968E-01
  11.884  0.290E+00  0.968E-01  0.968E-01  0.968E-01
  11.894  0.291E+00  0.969E-01  0.969E-01  0.969E-01
  11.904  0.292E+00  0.972E-01  0.972E-01  0.972E-01
  11.914  0.293E+00  0.977E-01  0.977E-01  0.977E-01
  11.924  0.295E+00  0.983E-01  0.983E-01  0.983E-01
  11.934  0.297E+00  0.990E-01  0.990E-01  0.990E-01
  11.944  0.294E+00  0.982E-01  0.982E-01  0.982E-01
  11.954  0.288E+00  0.961E-01  0.961E-01  0.961E-01
  11.964  0.282E+00  0.941E-01  0.941E-01  0.941E-01
  11.974  0.276E+00  0.920E-01  0.920E-01  0.920E-01
  11.984  0.270E+00  0.900E-01  0.900E-01  0.900E-01
  11.994  0.264E+00  0.880E-01  0.880E-01  0.880E-01
  12.004  0.258E+00  0.861E-01  0.861E-01  0.861E-01
  12.014  0.253E+00  0.843E-01  0.843E-01  0.843E-01
  12.024  0.248E+00  0.825E-01  0.825E-01  0.825E-01
  12.034  0.243E+00  0.809E-01  0.809E-01  0.809E-01
  12.044  0.238E+00  0.792E-01  0.792E-01  0.792E-01
  12.054  0.233E+00  0.778E-01  0.778E-01  0.778E-01
  12.064  0.230E+00  0.765E-01  0.765E-01  0.765E-01
  12.074  0.226E+00  0.754E-01  0.754E-01  0.754E-01
  12.084  0.224E+00  0.745E-01  0.745E-01  0.745E-01
  12.094  0.222E+00  0.739E-01  0.739E-01  0.739E-01
  12.104  0.221E+00  0.737E-01  0.737E-01  0.737E-01
  12.114  0.218E+00  0.726E-01  0.726E-01  0.726E-01
  12.124  0.218E+00  0.728E-01  0.728E-01  0.728E-01
  12.134  0.219E+00  0.731E-01  0.731E-01  0.731E-01
  12.144  0.220E+00  0.734E-01  0.734E-01  0.734E-01
  12.154  0.221E+00  0.737E-01  0.737E-01  0.737E-01
  12.164  0.222E+00  0.740E-01  0.740E-01  0.740E-01
  12.174  0.223E+00  0.743E-01  0.743E-01  0.743E-01
  12.184  0.224E+00  0.746E-01  0.746E-01  0.746E-01
  12.194  0.224E+00  0.748E-01  0.748E-01  0.748E-01
  12.204  0.225E+00  0.750E-01  0.750E-01  0.750E-01
  12.214  0.225E+00  0.751E-01  0.751E-01  0.751E-01
  12.224  0.225E+00  0.751E-01  0.751E-01  0.751E-01
  12.234  0.225E+00  0.751E-01  0.751E-01  0.751E-01
  12.244  0.225E+00  0.751E-01  0.751E-01  0.751E-01
  12.254  0.225E+00  0.751E-01  0.751E-01  0.751E-01
  12.264  0.225E+00  0.750E-01  0.750E-01  0.750E-01
  12.274  0.225E+00  0.748E-01  0.748E-01  0.748E-01
  12.284  0.224E+00  0.747E-01  0.747E-01  0.747E-01
  12.294  0.224E+00  0.747E-01  0.747E-01  0.747E-01
  12.304  0.225E+00  0.750E-01  0.750E-01  0.750E-01
  12.314  0.226E+00  0.754E-01  0.754E-01  0.754E-01
  12.324  0.228E+00  0.758E-01  0.758E-01  0.758E-01
  12.334  0.229E+00  0.763E-01  0.763E-01  0.763E-01
  12.344  0.231E+00  0.769E-01  0.769E-01  0.769E-01
  12.354  0.233E+00  0.775E-01  0.775E-01  0.775E-01
  12.364  0.234E+00  0.782E-01  0.782E-01  0.782E-01
  12.374  0.237E+00  0.789E-01  0.789E-01  0.789E-01
  12.384  0.239E+00  0.796E-01  0.796E-01  0.796E-01
  12.394  0.241E+00  0.804E-01  0.804E-01  0.804E-01
  12.404  0.244E+00  0.813E-01  0.813E-01  0.813E-01
  12.414  0.247E+00  0.822E-01  0.822E-01  0.822E-01
  12.424  0.249E+00  0.832E-01  0.832E-01  0.832E-01
  12.434  0.252E+00  0.842E-01  0.842E-01  0.842E-01
  12.444  0.256E+00  0.852E-01  0.852E-01  0.852E-01
  12.454  0.259E+00  0.863E-01  0.863E-01  0.863E-01
  12.464  0.262E+00  0.874E-01  0.874E-01  0.874E-01
  12.474  0.266E+00  0.886E-01  0.886E-01  0.886E-01
  12.484  0.269E+00  0.898E-01  0.898E-01  0.898E-01
  12.494  0.273E+00  0.910E-01  0.910E-01  0.910E-01
  12.504  0.277E+00  0.923E-01  0.923E-01  0.923E-01
  12.514  0.281E+00  0.936E-01  0.936E-01  0.936E-01
  12.524  0.268E+00  0.892E-01  0.892E-01  0.892E-01
  12.534  0.262E+00  0.872E-01  0.872E-01  0.872E-01
  12.544  0.262E+00  0.874E-01  0.874E-01  0.874E-01
  12.554  0.262E+00  0.875E-01  0.875E-01  0.875E-01
  12.564  0.263E+00  0.876E-01  0.876E-01  0.876E-01
  12.574  0.263E+00  0.876E-01  0.876E-01  0.876E-01
  12.584  0.263E+00  0.876E-01  0.876E-01  0.876E-01
  12.594  0.263E+00  0.876E-01  0.876E-01  0.876E-01
  12.604  0.263E+00  0.876E-01  0.876E-01  0.876E-01
  12.614  0.263E+00  0.875E-01  0.875E-01  0.875E-01
  12.624  0.262E+00  0.874E-01  0.874E-01  0.874E-01
  12.634  0.262E+00  0.873E-01  0.873E-01  0.873E-01
  12.644  0.261E+00  0.871E-01  0.871E-01  0.871E-01
  12.654  0.261E+00  0.869E-01  0.869E-01  0.869E-01
  12.664  0.260E+00  0.867E-01  0.867E-01  0.867E-01
  12.674  0.259E+00  0.864E-01  0.864E-01  0.864E-01
  12.684  0.258E+00  0.861E-01  0.861E-01  0.861E-01
  12.694  0.257E+00  0.858E-01  0.858E-01  0.858E-01
  12.704  0.257E+00  0.856E-01  0.856E-01  0.856E-01
  12.714  0.257E+00  0.855E-01  0.855E-01  0.855E-01
  12.724  0.257E+00  0.856E-01  0.856E-01  0.856E-01
  12.734  0.257E+00  0.858E-01  0.858E-01  0.858E-01
  12.744  0.258E+00  0.861E-01  0.861E-01  0.861E-01
  12.754  0.260E+00  0.868E-01  0.868E-01  0.868E-01
  12.764  0.262E+00  0.875E-01  0.875E-01  0.875E-01
  12.774  0.264E+00  0.881E-01  0.881E-01  0.881E-01
  12.784  0.266E+00  0.886E-01  0.886E-01  0.886E-01
  12.794  0.267E+00  0.890E-01  0.890E-01  0.890E-01
  12.804  0.268E+00  0.893E-01  0.893E-01  0.893E-01
  12.814  0.268E+00  0.895E-01  0.895E-01  0.895E-01
  12.824  0.268E+00  0.895E-01  0.895E-01  0.895E-01
  12.834  0.268E+00  0.894E-01  0.894E-01  0.894E-01
  12.844  0.268E+00  0.892E-01  0.892E-01  0.892E-01
  12.854  0.266E+00  0.888E-01  0.888E-01  0.888E-01
  12.864  0.265E+00  0.883E-01  0.883E-01  0.883E-01
  12.874  0.263E+00  0.877E-01  0.877E-01  0.877E-01
  12.884  0.261E+00  0.871E-01  0.871E-01  0.871E-01
  12.894  0.259E+00  0.865E-01  0.865E-01  0.865E-01
  12.904  0.257E+00  0.858E-01  0.858E-01  0.858E-01
  12.914  0.255E+00  0.852E-01  0.852E-01  0.852E-01
  12.924  0.253E+00  0.845E-01  0.845E-01  0.845E-01
  12.934  0.251E+00  0.838E-01  0.838E-01  0.838E-01
  12.944  0.249E+00  0.831E-01  0.831E-01  0.831E-01
  12.954  0.247E+00  0.824E-01  0.824E-01  0.824E-01
  12.964  0.245E+00  0.817E-01  0.817E-01  0.817E-01
  12.974  0.243E+00  0.809E-01  0.809E-01  0.809E-01
  12.984  0.241E+00  0.802E-01  0.802E-01  0.802E-01
  12.994  0.238E+00  0.794E-01  0.794E-01  0.794E-01
  13.004  0.236E+00  0.787E-01  0.787E-01  0.787E-01
  13.014  0.234E+00  0.779E-01  0.779E-01  0.779E-01
  13.024  0.231E+00  0.771E-01  0.771E-01  0.771E-01
  13.034  0.229E+00  0.763E-01  0.763E-01  0.763E-01
  13.044  0.227E+00  0.755E-01  0.755E-01  0.755E-01
  13.054  0.224E+00  0.747E-01  0.747E-01  0.747E-01
  13.064  0.222E+00  0.739E-01  0.739E-01  0.739E-01
  13.074  0.219E+00  0.731E-01  0.731E-01  0.731E-01
  13.084  0.217E+00  0.722E-01  0.722E-01  0.722E-01
  13.094  0.214E+00  0.713E-01  0.713E-01  0.713E-01
  13.104  0.211E+00  0.703E-01  0.703E-01  0.703E-01
  13.114  0.207E+00  0.692E-01  0.692E-01  0.692E-01
  13.124  0.204E+00  0.680E-01  0.680E-01  0.680E-01
  13.134  0.200E+00  0.668E-01  0.668E-01  0.668E-01
  13.144  0.197E+00  0.655E-01  0.655E-01  0.655E-01
  13.154  0.193E+00  0.644E-01  0.644E-01  0.644E-01
  13.164  0.192E+00  0.639E-01  0.639E-01  0.639E-01
  13.174  0.190E+00  0.635E-01  0.635E-01  0.635E-01
  13.184  0.189E+00  0.630E-01  0.630E-01  0.630E-01
  13.194  0.187E+00  0.625E-01  0.625E-01  0.625E-01
  13.204  0.186E+00  0.620E-01  0.620E-01  0.620E-01
  13.214  0.184E+00  0.614E-01  0.614E-01  0.614E-01
  13.224  0.183E+00  0.609E-01  0.609E-01  0.609E-01
  13.234  0.181E+00  0.603E-01  0.603E-01  0.603E-01
  13.244  0.179E+00  0.598E-01  0.598E-01  0.598E-01
  13.254  0.178E+00  0.592E-01  0.592E-01  0.592E-01
  13.264  0.176E+00  0.586E-01  0.586E-01  0.586E-01
  13.274  0.174E+00  0.580E-01  0.580E-01  0.580E-01
  13.284  0.172E+00  0.574E-01  0.574E-01  0.574E-01
  13.294  0.170E+00  0.567E-01  0.567E-01  0.567E-01
  13.304  0.168E+00  0.561E-01  0.561E-01  0.561E-01
  13.314  0.167E+00  0.558E-01  0.558E-01  0.558E-01
  13.324  0.166E+00  0.554E-01  0.554E-01  0.554E-01
  13.334  0.165E+00  0.551E-01  0.551E-01  0.551E-01
  13.344  0.164E+00  0.548E-01  0.548E-01  0.548E-01
  13.354  0.163E+00  0.544E-01  0.544E-01  0.544E-01
  13.364  0.162E+00  0.541E-01  0.541E-01  0.541E-01
  13.374  0.161E+00  0.537E-01  0.537E-01  0.537E-01
  13.384  0.160E+00  0.534E-01  0.534E-01  0.534E-01
  13.394  0.159E+00  0.530E-01  0.530E-01  0.530E-01
  13.404  0.158E+00  0.527E-01  0.527E-01  0.527E-01
  13.414  0.157E+00  0.523E-01  0.523E-01  0.523E-01
  13.424  0.156E+00  0.520E-01  0.520E-01  0.520E-01
  13.434  0.155E+00  0.517E-01  0.517E-01  0.517E-01
  13.444  0.154E+00  0.513E-01  0.513E-01  0.513E-01
  13.454  0.153E+00  0.510E-01  0.510E-01  0.510E-01
  13.464  0.152E+00  0.506E-01  0.506E-01  0.506E-01
  13.474  0.151E+00  0.503E-01  0.503E-01  0.503E-01
  13.484  0.150E+00  0.499E-01  0.499E-01  0.499E-01
  13.494  0.149E+00  0.495E-01  0.495E-01  0.495E-01
  13.504  0.148E+00  0.492E-01  0.492E-01  0.492E-01
  13.514  0.147E+00  0.489E-01  0.489E-01  0.489E-01
  13.524  0.146E+00  0.486E-01  0.486E-01  0.486E-01
  13.534  0.145E+00  0.485E-01  0.485E-01  0.485E-01
  13.544  0.146E+00  0.486E-01  0.486E-01  0.486E-01
  13.554  0.146E+00  0.486E-01  0.486E-01  0.486E-01
  13.564  0.146E+00  0.486E-01  0.486E-01  0.486E-01
  13.574  0.145E+00  0.484E-01  0.484E-01  0.484E-01
  13.584  0.144E+00  0.481E-01  0.481E-01  0.481E-01
  13.594  0.143E+00  0.478E-01  0.478E-01  0.478E-01
  13.604  0.142E+00  0.473E-01  0.473E-01  0.473E-01
  13.614  0.140E+00  0.467E-01  0.467E-01  0.467E-01
  13.624  0.139E+00  0.462E-01  0.462E-01  0.462E-01
  13.634  0.137E+00  0.457E-01  0.457E-01  0.457E-01
  13.644  0.135E+00  0.452E-01  0.452E-01  0.452E-01
  13.654  0.134E+00  0.447E-01  0.447E-01  0.447E-01
  13.664  0.133E+00  0.442E-01  0.442E-01  0.442E-01
  13.674  0.131E+00  0.438E-01  0.438E-01  0.438E-01
  13.684  0.130E+00  0.435E-01  0.435E-01  0.435E-01
  13.694  0.130E+00  0.432E-01  0.432E-01  0.432E-01
  13.704  0.129E+00  0.430E-01  0.430E-01  0.430E-01
  13.714  0.128E+00  0.427E-01  0.427E-01  0.427E-01
  13.724  0.128E+00  0.425E-01  0.425E-01  0.425E-01
  13.734  0.127E+00  0.423E-01  0.423E-01  0.423E-01
  13.744  0.126E+00  0.421E-01  0.421E-01  0.421E-01
  13.754  0.126E+00  0.419E-01  0.419E-01  0.419E-01
  13.764  0.125E+00  0.417E-01  0.417E-01  0.417E-01
  13.774  0.124E+00  0.415E-01  0.415E-01  0.415E-01
  13.784  0.124E+00  0.413E-01  0.413E-01  0.413E-01
  13.794  0.123E+00  0.410E-01  0.410E-01  0.410E-01
  13.804  0.122E+00  0.408E-01  0.408E-01  0.408E-01
  13.814  0.121E+00  0.405E-01  0.405E-01  0.405E-01
  13.824  0.121E+00  0.402E-01  0.402E-01  0.402E-01
  13.834  0.120E+00  0.398E-01  0.398E-01  0.398E-01
  13.844  0.118E+00  0.395E-01  0.395E-01  0.395E-01
  13.854  0.118E+00  0.393E-01  0.393E-01  0.393E-01
  13.864  0.118E+00  0.392E-01  0.392E-01  0.392E-01
  13.874  0.117E+00  0.391E-01  0.391E-01  0.391E-01
  13.884  0.117E+00  0.390E-01  0.390E-01  0.390E-01
  13.894  0.117E+00  0.389E-01  0.389E-01  0.389E-01
  13.904  0.117E+00  0.389E-01  0.389E-01  0.389E-01
  13.914  0.116E+00  0.388E-01  0.388E-01  0.388E-01
  13.924  0.116E+00  0.388E-01  0.388E-01  0.388E-01
  13.934  0.116E+00  0.388E-01  0.388E-01  0.388E-01
  13.944  0.116E+00  0.387E-01  0.387E-01  0.387E-01
  13.954  0.114E+00  0.381E-01  0.381E-01  0.381E-01
  13.964  0.110E+00  0.367E-01  0.367E-01  0.367E-01
  13.974  0.103E+00  0.345E-01  0.345E-01  0.345E-01
  13.984  0.969E-01  0.323E-01  0.323E-01  0.323E-01
  13.994  0.910E-01  0.303E-01  0.303E-01  0.303E-01
  14.004  0.861E-01  0.287E-01  0.287E-01  0.287E-01
  14.014  0.822E-01  0.274E-01  0.274E-01  0.274E-01
  14.024  0.794E-01  0.265E-01  0.265E-01  0.265E-01
  14.034  0.778E-01  0.259E-01  0.259E-01  0.259E-01
  14.044  0.771E-01  0.257E-01  0.257E-01  0.257E-01
  14.054  0.764E-01  0.255E-01  0.255E-01  0.255E-01
  14.064  0.758E-01  0.253E-01  0.253E-01  0.253E-01
  14.074  0.751E-01  0.250E-01  0.250E-01  0.250E-01
  14.084  0.745E-01  0.248E-01  0.248E-01  0.248E-01
  14.094  0.739E-01  0.246E-01  0.246E-01  0.246E-01
  14.104  0.732E-01  0.244E-01  0.244E-01  0.244E-01
  14.114  0.726E-01  0.242E-01  0.242E-01  0.242E-01
  14.124  0.720E-01  0.240E-01  0.240E-01  0.240E-01
  14.134  0.714E-01  0.238E-01  0.238E-01  0.238E-01
  14.144  0.708E-01  0.236E-01  0.236E-01  0.236E-01
  14.154  0.702E-01  0.234E-01  0.234E-01  0.234E-01
  14.164  0.697E-01  0.232E-01  0.232E-01  0.232E-01
  14.174  0.691E-01  0.230E-01  0.230E-01  0.230E-01
  14.184  0.685E-01  0.228E-01  0.228E-01  0.228E-01
  14.194  0.680E-01  0.227E-01  0.227E-01  0.227E-01
  14.204  0.674E-01  0.225E-01  0.225E-01  0.225E-01
  14.214  0.669E-01  0.223E-01  0.223E-01  0.223E-01
  14.224  0.663E-01  0.221E-01  0.221E-01  0.221E-01
  14.234  0.658E-01  0.219E-01  0.219E-01  0.219E-01
  14.244  0.653E-01  0.218E-01  0.218E-01  0.218E-01
  14.254  0.648E-01  0.216E-01  0.216E-01  0.216E-01
  14.264  0.643E-01  0.214E-01  0.214E-01  0.214E-01
  14.274  0.638E-01  0.213E-01  0.213E-01  0.213E-01
  14.284  0.633E-01  0.211E-01  0.211E-01  0.211E-01
  14.294  0.628E-01  0.209E-01  0.209E-01  0.209E-01
  14.304  0.623E-01  0.208E-01  0.208E-01  0.208E-01
  14.314  0.618E-01  0.206E-01  0.206E-01  0.206E-01
  14.324  0.614E-01  0.205E-01  0.205E-01  0.205E-01
  14.334  0.609E-01  0.203E-01  0.203E-01  0.203E-01
  14.344  0.605E-01  0.202E-01  0.202E-01  0.202E-01
  14.354  0.600E-01  0.200E-01  0.200E-01  0.200E-01
  14.364  0.596E-01  0.199E-01  0.199E-01  0.199E-01
  14.374  0.592E-01  0.197E-01  0.197E-01  0.197E-01
  14.384  0.588E-01  0.196E-01  0.196E-01  0.196E-01
  14.394  0.585E-01  0.195E-01  0.195E-01  0.195E-01
  14.404  0.581E-01  0.194E-01  0.194E-01  0.194E-01
  14.414  0.577E-01  0.192E-01  0.192E-01  0.192E-01
  14.424  0.574E-01  0.191E-01  0.191E-01  0.191E-01
  14.434  0.571E-01  0.190E-01  0.190E-01  0.190E-01
  14.444  0.568E-01  0.189E-01  0.189E-01  0.189E-01
  14.454  0.565E-01  0.188E-01  0.188E-01  0.188E-01
  14.464  0.562E-01  0.187E-01  0.187E-01  0.187E-01
  14.474  0.559E-01  0.186E-01  0.186E-01  0.186E-01
  14.484  0.557E-01  0.186E-01  0.186E-01  0.186E-01
  14.494  0.554E-01  0.185E-01  0.185E-01  0.185E-01
  14.504  0.552E-01  0.184E-01  0.184E-01  0.184E-01
  14.514  0.550E-01  0.183E-01  0.183E-01  0.183E-01
  14.524  0.548E-01  0.183E-01  0.183E-01  0.183E-01
  14.534  0.547E-01  0.182E-01  0.182E-01  0.182E-01
  14.544  0.545E-01  0.182E-01  0.182E-01  0.182E-01
  14.554  0.544E-01  0.181E-01  0.181E-01  0.181E-01
  14.564  0.543E-01  0.181E-01  0.181E-01  0.181E-01
  14.574  0.542E-01  0.181E-01  0.181E-01  0.181E-01
  14.584  0.541E-01  0.180E-01  0.180E-01  0.180E-01
  14.594  0.541E-01  0.180E-01  0.180E-01  0.180E-01
  14.604  0.542E-01  0.181E-01  0.181E-01  0.181E-01
  14.614  0.545E-01  0.182E-01  0.182E-01  0.182E-01
  14.624  0.547E-01  0.182E-01  0.182E-01  0.182E-01
  14.634  0.550E-01  0.183E-01  0.183E-01  0.183E-01
  14.644  0.552E-01  0.184E-01  0.184E-01  0.184E-01
  14.654  0.554E-01  0.185E-01  0.185E-01  0.185E-01
  14.664  0.556E-01  0.185E-01  0.185E-01  0.185E-01
  14.674  0.558E-01  0.186E-01  0.186E-01  0.186E-01
  14.684  0.560E-01  0.187E-01  0.187E-01  0.187E-01
  14.694  0.562E-01  0.187E-01  0.187E-01  0.187E-01
  14.704  0.563E-01  0.188E-01  0.188E-01  0.188E-01
  14.714  0.565E-01  0.188E-01  0.188E-01  0.188E-01
  14.724  0.566E-01  0.189E-01  0.189E-01  0.189E-01
  14.734  0.567E-01  0.189E-01  0.189E-01  0.189E-01
  14.744  0.568E-01  0.189E-01  0.189E-01  0.189E-01
  14.754  0.569E-01  0.190E-01  0.190E-01  0.190E-01
  14.764  0.570E-01  0.190E-01  0.190E-01  0.190E-01
  14.774  0.571E-01  0.190E-01  0.190E-01  0.190E-01
  14.784  0.571E-01  0.190E-01  0.190E-01  0.190E-01
  14.794  0.572E-01  0.191E-01  0.191E-01  0.191E-01
  14.804  0.572E-01  0.191E-01  0.191E-01  0.191E-01
  14.814  0.572E-01  0.191E-01  0.191E-01  0.191E-01
  14.824  0.573E-01  0.191E-01  0.191E-01  0.191E-01
  14.834  0.574E-01  0.191E-01  0.191E-01  0.191E-01
  14.844  0.578E-01  0.193E-01  0.193E-01  0.193E-01
  14.854  0.582E-01  0.194E-01  0.194E-01  0.194E-01
  14.864  0.585E-01  0.195E-01  0.195E-01  0.195E-01
  14.874  0.588E-01  0.196E-01  0.196E-01  0.196E-01
  14.884  0.589E-01  0.196E-01  0.196E-01  0.196E-01
  14.894  0.591E-01  0.197E-01  0.197E-01  0.197E-01
  14.904  0.591E-01  0.197E-01  0.197E-01  0.197E-01
  14.914  0.591E-01  0.197E-01  0.197E-01  0.197E-01
  14.924  0.590E-01  0.197E-01  0.197E-01  0.197E-01
  14.934  0.589E-01  0.196E-01  0.196E-01  0.196E-01
  14.944  0.587E-01  0.196E-01  0.196E-01  0.196E-01
  14.954  0.584E-01  0.195E-01  0.195E-01  0.195E-01
  14.964  0.580E-01  0.193E-01  0.193E-01  0.193E-01
  14.974  0.576E-01  0.192E-01  0.192E-01  0.192E-01
  14.984  0.571E-01  0.190E-01  0.190E-01  0.190E-01
  14.994  0.566E-01  0.189E-01  0.189E-01  0.189E-01
  15.004  0.560E-01  0.187E-01  0.187E-01  0.187E-01
  15.014  0.552E-01  0.184E-01  0.184E-01  0.184E-01
  15.024  0.542E-01  0.181E-01  0.181E-01  0.181E-01
  15.034  0.530E-01  0.177E-01  0.177E-01  0.177E-01
  15.044  0.516E-01  0.172E-01  0.172E-01  0.172E-01
  15.054  0.499E-01  0.166E-01  0.166E-01  0.166E-01
  15.064  0.481E-01  0.160E-01  0.160E-01  0.160E-01
  15.074  0.460E-01  0.153E-01  0.153E-01  0.153E-01
  15.084  0.437E-01  0.146E-01  0.146E-01  0.146E-01
  15.094  0.413E-01  0.138E-01  0.138E-01  0.138E-01
  15.104  0.387E-01  0.129E-01  0.129E-01  0.129E-01
  15.114  0.359E-01  0.120E-01  0.120E-01  0.120E-01
  15.124  0.330E-01  0.110E-01  0.110E-01  0.110E-01
  15.134  0.299E-01  0.996E-02  0.996E-02  0.996E-02
  15.144  0.266E-01  0.886E-02  0.886E-02  0.886E-02
  15.154  0.231E-01  0.771E-02  0.771E-02  0.771E-02
  15.164  0.220E-01  0.734E-02  0.734E-02  0.734E-02
  15.174  0.216E-01  0.720E-02  0.720E-02  0.720E-02
  15.184  0.212E-01  0.707E-02  0.707E-02  0.707E-02
  15.194  0.208E-01  0.694E-02  0.694E-02  0.694E-02
  15.204  0.204E-01  0.681E-02  0.681E-02  0.681E-02
  15.214  0.200E-01  0.668E-02  0.668E-02  0.668E-02
  15.224  0.196E-01  0.655E-02  0.655E-02  0.655E-02
  15.234  0.192E-01  0.642E-02  0.642E-02  0.642E-02
  15.244  0.189E-01  0.629E-02  0.629E-02  0.629E-02
  15.254  0.185E-01  0.616E-02  0.616E-02  0.616E-02
  15.264  0.181E-01  0.603E-02  0.603E-02  0.603E-02
  15.274  0.177E-01  0.590E-02  0.590E-02  0.590E-02
  15.284  0.173E-01  0.578E-02  0.578E-02  0.578E-02
  15.294  0.170E-01  0.565E-02  0.565E-02  0.565E-02
  15.304  0.166E-01  0.553E-02  0.553E-02  0.553E-02
  15.314  0.162E-01  0.540E-02  0.540E-02  0.540E-02
  15.324  0.158E-01  0.528E-02  0.528E-02  0.528E-02
  15.334  0.155E-01  0.516E-02  0.516E-02  0.516E-02
  15.344  0.151E-01  0.504E-02  0.504E-02  0.504E-02
  15.354  0.147E-01  0.492E-02  0.492E-02  0.492E-02
  15.364  0.144E-01  0.480E-02  0.480E-02  0.480E-02
  15.374  0.140E-01  0.468E-02  0.468E-02  0.468E-02
  15.384  0.137E-01  0.456E-02  0.456E-02  0.456E-02
  15.394  0.133E-01  0.444E-02  0.444E-02  0.444E-02
  15.404  0.130E-01  0.433E-02  0.433E-02  0.433E-02
  15.414  0.126E-01  0.421E-02  0.421E-02  0.421E-02
  15.424  0.123E-01  0.410E-02  0.410E-02  0.410E-02
  15.434  0.120E-01  0.399E-02  0.399E-02  0.399E-02
  15.444  0.116E-01  0.388E-02  0.388E-02  0.388E-02
  15.454  0.113E-01  0.376E-02  0.376E-02  0.376E-02
  15.464  0.110E-01  0.366E-02  0.366E-02  0.366E-02
  15.474  0.106E-01  0.355E-02  0.355E-02  0.355E-02
  15.484  0.103E-01  0.344E-02  0.344E-02  0.344E-02
  15.494  0.100E-01  0.333E-02  0.333E-02  0.333E-02
  15.504  0.969E-02  0.323E-02  0.323E-02  0.323E-02
  15.514  0.938E-02  0.313E-02  0.313E-02  0.313E-02
  15.524  0.907E-02  0.302E-02  0.302E-02  0.302E-02
  15.534  0.877E-02  0.292E-02  0.292E-02  0.292E-02
  15.544  0.847E-02  0.282E-02  0.282E-02  0.282E-02
  15.554  0.818E-02  0.273E-02  0.273E-02  0.273E-02
  15.564  0.789E-02  0.263E-02  0.263E-02  0.263E-02
  15.574  0.760E-02  0.253E-02  0.253E-02  0.253E-02
  15.584  0.732E-02  0.244E-02  0.244E-02  0.244E-02
  15.594  0.704E-02  0.235E-02  0.235E-02  0.235E-02
  15.604  0.677E-02  0.226E-02  0.226E-02  0.226E-02
  15.614  0.650E-02  0.217E-02  0.217E-02  0.217E-02
  15.624  0.624E-02  0.208E-02  0.208E-02  0.208E-02
  15.634  0.598E-02  0.199E-02  0.199E-02  0.199E-02
  15.644  0.572E-02  0.191E-02  0.191E-02  0.191E-02
  15.654  0.547E-02  0.182E-02  0.182E-02  0.182E-02
  15.664  0.522E-02  0.174E-02  0.174E-02  0.174E-02
  15.674  0.498E-02  0.166E-02  0.166E-02  0.166E-02
  15.684  0.475E-02  0.158E-02  0.158E-02  0.158E-02
  15.694  0.451E-02  0.150E-02  0.150E-02  0.150E-02
  15.704  0.429E-02  0.143E-02  0.143E-02  0.143E-02
  15.714  0.407E-02  0.136E-02  0.136E-02  0.136E-02
  15.724  0.385E-02  0.128E-02  0.128E-02  0.128E-02
  15.734  0.364E-02  0.121E-02  0.121E-02  0.121E-02
  15.744  0.343E-02  0.114E-02  0.114E-02  0.114E-02
  15.754  0.323E-02  0.108E-02  0.108E-02  0.108E-02
  15.764  0.304E-02  0.101E-02  0.101E-02  0.101E-02
  15.774  0.285E-02  0.948E-03  0.948E-03  0.948E-03
  15.784  0.266E-02  0.887E-03  0.887E-03  0.887E-03
  15.794  0.248E-02  0.827E-03  0.827E-03  0.827E-03
  15.804  0.231E-02  0.770E-03  0.770E-03  0.770E-03
  15.814  0.214E-02  0.714E-03  0.714E-03  0.714E-03
  15.824  0.198E-02  0.660E-03  0.660E-03  0.660E-03
  15.834  0.182E-02  0.608E-03  0.608E-03  0.608E-03
  15.844  0.167E-02  0.558E-03  0.558E-03  0.558E-03
  15.854  0.153E-02  0.510E-03  0.510E-03  0.510E-03
  15.864  0.139E-02  0.464E-03  0.464E-03  0.464E-03
  15.874  0.126E-02  0.420E-03  0.420E-03  0.420E-03
  15.884  0.113E-02  0.378E-03  0.378E-03  0.378E-03
  15.894  0.101E-02  0.338E-03  0.338E-03  0.338E-03
  15.904  0.901E-03  0.300E-03  0.300E-03  0.300E-03
  15.914  0.794E-03  0.265E-03  0.265E-03  0.265E-03
  15.924  0.694E-03  0.231E-03  0.231E-03  0.231E-03
  15.934  0.600E-03  0.200E-03  0.200E-03  0.200E-03
  15.944  0.512E-03  0.171E-03  0.171E-03  0.171E-03
  15.954  0.432E-03  0.144E-03  0.144E-03  0.144E-03
  15.964  0.358E-03  0.119E-03  0.119E-03  0.119E-03
  15.974  0.290E-03  0.968E-04  0.968E-04  0.968E-04
  15.984  0.230E-03  0.766E-04  0.766E-04  0.766E-04
  15.994  0.176E-03  0.588E-04  0.588E-04  0.588E-04
  16.004  0.130E-03  0.432E-04  0.432E-04  0.432E-04
  16.014  0.901E-04  0.300E-04  0.300E-04  0.300E-04
  16.024  0.576E-04  0.192E-04  0.192E-04  0.192E-04
  16.034  0.323E-04  0.108E-04  0.108E-04  0.108E-04
  16.044  0.142E-04  0.475E-05  0.475E-05  0.475E-05
  16.054  0.344E-05  0.115E-05  0.115E-05  0.115E-05
  16.064  0.000E+00  0.000E+00  0.000E+00  0.000E+00
