# E (eV)  dos(E)    pdos(E)
  -5.876  0.000E+00  0.000E+00
  -5.866  0.137E-02  0.137E-02
  -5.856  0.549E-02  0.547E-02
  -5.846  0.124E-01  0.123E-01
  -5.836  0.220E-01  0.219E-01
  -5.826  0.343E-01  0.342E-01
  -5.816  0.494E-01  0.492E-01
  -5.806  0.673E-01  0.670E-01
  -5.796  0.879E-01  0.874E-01
  -5.786  0.111E+00  0.111E+00
  -5.776  0.104E+00  0.103E+00
  -5.766  0.979E-01  0.975E-01
  -5.756  0.984E-01  0.980E-01
  -5.746  0.103E+00  0.103E+00
  -5.736  0.108E+00  0.108E+00
  -5.726  0.113E+00  0.113E+00
  -5.716  0.118E+00  0.118E+00
  -5.706  0.123E+00  0.123E+00
  -5.696  0.129E+00  0.128E+00
  -5.686  0.134E+00  0.133E+00
  -5.676  0.139E+00  0.139E+00
  -5.666  0.145E+00  0.144E+00
  -5.656  0.151E+00  0.150E+00
  -5.646  0.156E+00  0.156E+00
  -5.636  0.162E+00  0.161E+00
  -5.626  0.168E+00  0.167E+00
  -5.616  0.173E+00  0.172E+00
  -5.606  0.177E+00  0.177E+00
  -5.596  0.181E+00  0.180E+00
  -5.586  0.184E+00  0.183E+00
  -5.576  0.187E+00  0.186E+00
  -5.566  0.189E+00  0.188E+00
  -5.556  0.190E+00  0.189E+00
  -5.546  0.190E+00  0.189E+00
  -5.536  0.191E+00  0.191E+00
  -5.526  0.194E+00  0.193E+00
  -5.516  0.196E+00  0.195E+00
  -5.506  0.199E+00  0.198E+00
  -5.496  0.203E+00  0.202E+00
  -5.486  0.206E+00  0.205E+00
  -5.476  0.209E+00  0.208E+00
  -5.466  0.212E+00  0.211E+00
  -5.456  0.216E+00  0.215E+00
  -5.446  0.219E+00  0.218E+00
  -5.436  0.222E+00  0.221E+00
  -5.426  0.226E+00  0.224E+00
  -5.416  0.229E+00  0.228E+00
  -5.406  0.232E+00  0.231E+00
  -5.396  0.236E+00  0.234E+00
  -5.386  0.239E+00  0.238E+00
  -5.376  0.242E+00  0.241E+00
  -5.366  0.246E+00  0.245E+00
  -5.356  0.249E+00  0.248E+00
  -5.346  0.253E+00  0.252E+00
  -5.336  0.256E+00  0.255E+00
  -5.326  0.260E+00  0.259E+00
  -5.316  0.264E+00  0.262E+00
  -5.306  0.267E+00  0.266E+00
  -5.296  0.267E+00  0.266E+00
  -5.286  0.268E+00  0.267E+00
  -5.276  0.270E+00  0.269E+00
  -5.266  0.272E+00  0.271E+00
  -5.256  0.274E+00  0.273E+00
  -5.246  0.277E+00  0.275E+00
  -5.236  0.279E+00  0.277E+00
  -5.226  0.281E+00  0.279E+00
  -5.216  0.283E+00  0.282E+00
  -5.206  0.285E+00  0.284E+00
  -5.196  0.287E+00  0.286E+00
  -5.186  0.289E+00  0.288E+00
  -5.176  0.291E+00  0.290E+00
  -5.166  0.294E+00  0.292E+00
  -5.156  0.296E+00  0.294E+00
  -5.146  0.298E+00  0.296E+00
  -5.136  0.300E+00  0.298E+00
  -5.126  0.302E+00  0.300E+00
  -5.116  0.304E+00  0.303E+00
  -5.106  0.306E+00  0.305E+00
  -5.096  0.309E+00  0.307E+00
  -5.086  0.311E+00  0.310E+00
  -5.076  0.314E+00  0.312E+00
  -5.066  0.316E+00  0.314E+00
  -5.056  0.319E+00  0.317E+00
  -5.046  0.321E+00  0.320E+00
  -5.036  0.324E+00  0.322E+00
  -5.026  0.327E+00  0.325E+00
  -5.016  0.329E+00  0.327E+00
  -5.006  0.332E+00  0.330E+00
  -4.996  0.335E+00  0.333E+00
  -4.986  0.337E+00  0.335E+00
  -4.976  0.340E+00  0.338E+00
  -4.966  0.343E+00  0.341E+00
  -4.956  0.345E+00  0.343E+00
  -4.946  0.348E+00  0.346E+00
  -4.936  0.351E+00  0.349E+00
  -4.926  0.353E+00  0.351E+00
  -4.916  0.356E+00  0.354E+00
  -4.906  0.358E+00  0.357E+00
  -4.896  0.361E+00  0.359E+00
  -4.886  0.363E+00  0.361E+00
  -4.876  0.365E+00  0.363E+00
  -4.866  0.366E+00  0.365E+00
  -4.856  0.368E+00  0.366E+00
  -4.846  0.369E+00  0.367E+00
  -4.836  0.371E+00  0.369E+00
  -4.826  0.372E+00  0.370E+00
  -4.816  0.374E+00  0.372E+00
  -4.806  0.376E+00  0.374E+00
  -4.796  0.378E+00  0.376E+00
  -4.786  0.380E+00  0.378E+00
  -4.776  0.382E+00  0.380E+00
  -4.766  0.384E+00  0.382E+00
  -4.756  0.386E+00  0.384E+00
  -4.746  0.389E+00  0.386E+00
  -4.736  0.391E+00  0.388E+00
  -4.726  0.393E+00  0.391E+00
  -4.716  0.395E+00  0.393E+00
  -4.706  0.397E+00  0.395E+00
  -4.696  0.399E+00  0.397E+00
  -4.686  0.401E+00  0.399E+00
  -4.676  0.403E+00  0.401E+00
  -4.666  0.405E+00  0.403E+00
  -4.656  0.408E+00  0.405E+00
  -4.646  0.410E+00  0.407E+00
  -4.636  0.412E+00  0.410E+00
  -4.626  0.414E+00  0.412E+00
  -4.616  0.416E+00  0.414E+00
  -4.606  0.418E+00  0.416E+00
  -4.596  0.421E+00  0.418E+00
  -4.586  0.423E+00  0.421E+00
  -4.576  0.425E+00  0.423E+00
  -4.566  0.428E+00  0.425E+00
  -4.556  0.430E+00  0.428E+00
  -4.546  0.432E+00  0.430E+00
  -4.536  0.435E+00  0.432E+00
  -4.526  0.437E+00  0.435E+00
  -4.516  0.440E+00  0.437E+00
  -4.506  0.442E+00  0.440E+00
  -4.496  0.445E+00  0.442E+00
  -4.486  0.447E+00  0.445E+00
  -4.476  0.450E+00  0.447E+00
  -4.466  0.452E+00  0.450E+00
  -4.456  0.455E+00  0.452E+00
  -4.446  0.457E+00  0.455E+00
  -4.436  0.460E+00  0.457E+00
  -4.426  0.462E+00  0.460E+00
  -4.416  0.465E+00  0.462E+00
  -4.406  0.467E+00  0.465E+00
  -4.396  0.470E+00  0.467E+00
  -4.386  0.472E+00  0.469E+00
  -4.376  0.474E+00  0.471E+00
  -4.366  0.476E+00  0.473E+00
  -4.356  0.478E+00  0.475E+00
  -4.346  0.480E+00  0.477E+00
  -4.336  0.482E+00  0.480E+00
  -4.326  0.485E+00  0.482E+00
  -4.316  0.487E+00  0.484E+00
  -4.306  0.489E+00  0.486E+00
  -4.296  0.491E+00  0.489E+00
  -4.286  0.494E+00  0.491E+00
  -4.276  0.496E+00  0.493E+00
  -4.266  0.498E+00  0.495E+00
  -4.256  0.500E+00  0.498E+00
  -4.246  0.503E+00  0.500E+00
  -4.236  0.505E+00  0.502E+00
  -4.226  0.507E+00  0.505E+00
  -4.216  0.510E+00  0.507E+00
  -4.206  0.512E+00  0.510E+00
  -4.196  0.515E+00  0.512E+00
  -4.186  0.518E+00  0.515E+00
  -4.176  0.520E+00  0.517E+00
  -4.166  0.523E+00  0.520E+00
  -4.156  0.526E+00  0.523E+00
  -4.146  0.528E+00  0.526E+00
  -4.136  0.531E+00  0.528E+00
  -4.126  0.534E+00  0.531E+00
  -4.116  0.537E+00  0.534E+00
  -4.106  0.540E+00  0.537E+00
  -4.096  0.543E+00  0.540E+00
  -4.086  0.546E+00  0.542E+00
  -4.076  0.548E+00  0.545E+00
  -4.066  0.551E+00  0.548E+00
  -4.056  0.554E+00  0.551E+00
  -4.046  0.557E+00  0.554E+00
  -4.036  0.560E+00  0.557E+00
  -4.026  0.563E+00  0.560E+00
  -4.016  0.566E+00  0.563E+00
  -4.006  0.570E+00  0.566E+00
  -3.996  0.573E+00  0.569E+00
  -3.986  0.576E+00  0.573E+00
  -3.976  0.579E+00  0.576E+00
  -3.966  0.582E+00  0.579E+00
  -3.956  0.586E+00  0.582E+00
  -3.946  0.589E+00  0.586E+00
  -3.936  0.593E+00  0.589E+00
  -3.926  0.596E+00  0.593E+00
  -3.916  0.600E+00  0.597E+00
  -3.906  0.604E+00  0.600E+00
  -3.896  0.607E+00  0.604E+00
  -3.886  0.611E+00  0.608E+00
  -3.876  0.615E+00  0.612E+00
  -3.866  0.619E+00  0.616E+00
  -3.856  0.623E+00  0.619E+00
  -3.846  0.627E+00  0.623E+00
  -3.836  0.631E+00  0.628E+00
  -3.826  0.635E+00  0.632E+00
  -3.816  0.639E+00  0.636E+00
  -3.806  0.644E+00  0.640E+00
  -3.796  0.648E+00  0.645E+00
  -3.786  0.653E+00  0.649E+00
  -3.776  0.657E+00  0.654E+00
  -3.766  0.662E+00  0.658E+00
  -3.756  0.666E+00  0.663E+00
  -3.746  0.672E+00  0.668E+00
  -3.736  0.677E+00  0.673E+00
  -3.726  0.683E+00  0.679E+00
  -3.716  0.688E+00  0.685E+00
  -3.706  0.694E+00  0.690E+00
  -3.696  0.700E+00  0.696E+00
  -3.686  0.706E+00  0.702E+00
  -3.676  0.713E+00  0.709E+00
  -3.666  0.719E+00  0.715E+00
  -3.656  0.726E+00  0.722E+00
  -3.646  0.732E+00  0.728E+00
  -3.636  0.739E+00  0.735E+00
  -3.626  0.747E+00  0.743E+00
  -3.616  0.757E+00  0.753E+00
  -3.606  0.770E+00  0.766E+00
  -3.596  0.787E+00  0.782E+00
  -3.586  0.807E+00  0.802E+00
  -3.576  0.830E+00  0.826E+00
  -3.566  0.857E+00  0.853E+00
  -3.556  0.888E+00  0.884E+00
  -3.546  0.922E+00  0.918E+00
  -3.536  0.960E+00  0.955E+00
  -3.526  0.996E+00  0.991E+00
  -3.516  0.999E+00  0.994E+00
  -3.506  0.964E+00  0.959E+00
  -3.496  0.892E+00  0.887E+00
  -3.486  0.869E+00  0.864E+00
  -3.476  0.868E+00  0.863E+00
  -3.466  0.867E+00  0.862E+00
  -3.456  0.866E+00  0.861E+00
  -3.446  0.865E+00  0.860E+00
  -3.436  0.864E+00  0.860E+00
  -3.426  0.864E+00  0.859E+00
  -3.416  0.863E+00  0.859E+00
  -3.406  0.863E+00  0.859E+00
  -3.396  0.863E+00  0.858E+00
  -3.386  0.863E+00  0.858E+00
  -3.376  0.863E+00  0.859E+00
  -3.366  0.863E+00  0.858E+00
  -3.356  0.861E+00  0.856E+00
  -3.346  0.857E+00  0.853E+00
  -3.336  0.852E+00  0.847E+00
  -3.326  0.845E+00  0.841E+00
  -3.316  0.837E+00  0.832E+00
  -3.306  0.827E+00  0.823E+00
  -3.296  0.815E+00  0.811E+00
  -3.286  0.803E+00  0.798E+00
  -3.276  0.794E+00  0.789E+00
  -3.266  0.790E+00  0.786E+00
  -3.256  0.792E+00  0.788E+00
  -3.246  0.795E+00  0.791E+00
  -3.236  0.799E+00  0.795E+00
  -3.226  0.802E+00  0.798E+00
  -3.216  0.805E+00  0.801E+00
  -3.206  0.808E+00  0.804E+00
  -3.196  0.811E+00  0.806E+00
  -3.186  0.813E+00  0.808E+00
  -3.176  0.813E+00  0.809E+00
  -3.166  0.813E+00  0.809E+00
  -3.156  0.811E+00  0.807E+00
  -3.146  0.809E+00  0.805E+00
  -3.136  0.806E+00  0.801E+00
  -3.126  0.801E+00  0.797E+00
  -3.116  0.797E+00  0.793E+00
  -3.106  0.792E+00  0.788E+00
  -3.096  0.787E+00  0.783E+00
  -3.086  0.781E+00  0.777E+00
  -3.076  0.775E+00  0.771E+00
  -3.066  0.768E+00  0.764E+00
  -3.056  0.761E+00  0.757E+00
  -3.046  0.754E+00  0.750E+00
  -3.036  0.746E+00  0.742E+00
  -3.026  0.738E+00  0.734E+00
  -3.016  0.730E+00  0.726E+00
  -3.006  0.727E+00  0.723E+00
  -2.996  0.723E+00  0.719E+00
  -2.986  0.720E+00  0.716E+00
  -2.976  0.716E+00  0.713E+00
  -2.966  0.713E+00  0.709E+00
  -2.956  0.709E+00  0.706E+00
  -2.946  0.706E+00  0.702E+00
  -2.936  0.703E+00  0.699E+00
  -2.926  0.700E+00  0.696E+00
  -2.916  0.696E+00  0.693E+00
  -2.906  0.693E+00  0.690E+00
  -2.896  0.691E+00  0.687E+00
  -2.886  0.688E+00  0.684E+00
  -2.876  0.685E+00  0.682E+00
  -2.866  0.683E+00  0.679E+00
  -2.856  0.680E+00  0.677E+00
  -2.846  0.678E+00  0.674E+00
  -2.836  0.676E+00  0.672E+00
  -2.826  0.674E+00  0.670E+00
  -2.816  0.672E+00  0.668E+00
  -2.806  0.670E+00  0.666E+00
  -2.796  0.667E+00  0.664E+00
  -2.786  0.665E+00  0.661E+00
  -2.776  0.663E+00  0.659E+00
  -2.766  0.660E+00  0.656E+00
  -2.756  0.657E+00  0.654E+00
  -2.746  0.654E+00  0.651E+00
  -2.736  0.651E+00  0.648E+00
  -2.726  0.648E+00  0.645E+00
  -2.716  0.645E+00  0.642E+00
  -2.706  0.642E+00  0.638E+00
  -2.696  0.639E+00  0.635E+00
  -2.686  0.635E+00  0.632E+00
  -2.676  0.631E+00  0.628E+00
  -2.666  0.628E+00  0.624E+00
  -2.656  0.623E+00  0.620E+00
  -2.646  0.619E+00  0.616E+00
  -2.636  0.614E+00  0.611E+00
  -2.626  0.609E+00  0.605E+00
  -2.616  0.603E+00  0.600E+00
  -2.606  0.597E+00  0.594E+00
  -2.596  0.591E+00  0.588E+00
  -2.586  0.587E+00  0.583E+00
  -2.576  0.584E+00  0.581E+00
  -2.566  0.581E+00  0.578E+00
  -2.556  0.578E+00  0.575E+00
  -2.546  0.576E+00  0.572E+00
  -2.536  0.573E+00  0.570E+00
  -2.526  0.570E+00  0.567E+00
  -2.516  0.567E+00  0.564E+00
  -2.506  0.564E+00  0.561E+00
  -2.496  0.561E+00  0.558E+00
  -2.486  0.558E+00  0.555E+00
  -2.476  0.556E+00  0.553E+00
  -2.466  0.553E+00  0.550E+00
  -2.456  0.550E+00  0.547E+00
  -2.446  0.547E+00  0.544E+00
  -2.436  0.544E+00  0.541E+00
  -2.426  0.541E+00  0.538E+00
  -2.416  0.538E+00  0.535E+00
  -2.406  0.535E+00  0.532E+00
  -2.396  0.532E+00  0.529E+00
  -2.386  0.529E+00  0.526E+00
  -2.376  0.525E+00  0.523E+00
  -2.366  0.522E+00  0.519E+00
  -2.356  0.519E+00  0.516E+00
  -2.346  0.516E+00  0.513E+00
  -2.336  0.513E+00  0.510E+00
  -2.326  0.510E+00  0.507E+00
  -2.316  0.506E+00  0.504E+00
  -2.306  0.503E+00  0.500E+00
  -2.296  0.500E+00  0.497E+00
  -2.286  0.497E+00  0.494E+00
  -2.276  0.493E+00  0.490E+00
  -2.266  0.490E+00  0.487E+00
  -2.256  0.486E+00  0.483E+00
  -2.246  0.482E+00  0.480E+00
  -2.236  0.479E+00  0.476E+00
  -2.226  0.479E+00  0.476E+00
  -2.216  0.484E+00  0.481E+00
  -2.206  0.487E+00  0.484E+00
  -2.196  0.490E+00  0.487E+00
  -2.186  0.491E+00  0.488E+00
  -2.176  0.491E+00  0.488E+00
  -2.166  0.490E+00  0.487E+00
  -2.156  0.488E+00  0.485E+00
  -2.146  0.485E+00  0.482E+00
  -2.136  0.480E+00  0.477E+00
  -2.126  0.475E+00  0.472E+00
  -2.116  0.465E+00  0.463E+00
  -2.106  0.445E+00  0.443E+00
  -2.096  0.427E+00  0.424E+00
  -2.086  0.410E+00  0.407E+00
  -2.076  0.395E+00  0.392E+00
  -2.066  0.381E+00  0.379E+00
  -2.056  0.368E+00  0.366E+00
  -2.046  0.355E+00  0.353E+00
  -2.036  0.342E+00  0.340E+00
  -2.026  0.330E+00  0.328E+00
  -2.016  0.317E+00  0.315E+00
  -2.006  0.305E+00  0.303E+00
  -1.996  0.293E+00  0.292E+00
  -1.986  0.282E+00  0.280E+00
  -1.976  0.270E+00  0.268E+00
  -1.966  0.259E+00  0.257E+00
  -1.956  0.248E+00  0.246E+00
  -1.946  0.237E+00  0.235E+00
  -1.936  0.226E+00  0.225E+00
  -1.926  0.216E+00  0.214E+00
  -1.916  0.205E+00  0.204E+00
  -1.906  0.195E+00  0.194E+00
  -1.896  0.186E+00  0.184E+00
  -1.886  0.176E+00  0.175E+00
  -1.876  0.167E+00  0.166E+00
  -1.866  0.157E+00  0.156E+00
  -1.856  0.148E+00  0.147E+00
  -1.846  0.139E+00  0.139E+00
  -1.836  0.131E+00  0.130E+00
  -1.826  0.122E+00  0.122E+00
  -1.816  0.114E+00  0.113E+00
  -1.806  0.106E+00  0.106E+00
  -1.796  0.983E-01  0.977E-01
  -1.786  0.907E-01  0.901E-01
  -1.776  0.833E-01  0.828E-01
  -1.766  0.760E-01  0.756E-01
  -1.756  0.690E-01  0.686E-01
  -1.746  0.622E-01  0.618E-01
  -1.736  0.555E-01  0.552E-01
  -1.726  0.491E-01  0.488E-01
  -1.716  0.434E-01  0.432E-01
  -1.706  0.387E-01  0.385E-01
  -1.696  0.349E-01  0.347E-01
  -1.686  0.319E-01  0.317E-01
  -1.676  0.295E-01  0.294E-01
  -1.666  0.277E-01  0.275E-01
  -1.656  0.264E-01  0.262E-01
  -1.646  0.255E-01  0.254E-01
  -1.636  0.252E-01  0.251E-01
  -1.626  0.254E-01  0.253E-01
  -1.616  0.262E-01  0.260E-01
  -1.606  0.274E-01  0.272E-01
  -1.596  0.293E-01  0.291E-01
  -1.586  0.323E-01  0.321E-01
  -1.576  0.363E-01  0.360E-01
  -1.566  0.413E-01  0.410E-01
  -1.556  0.473E-01  0.470E-01
  -1.546  0.537E-01  0.533E-01
  -1.536  0.602E-01  0.598E-01
  -1.526  0.669E-01  0.664E-01
  -1.516  0.737E-01  0.732E-01
  -1.506  0.807E-01  0.802E-01
  -1.496  0.879E-01  0.873E-01
  -1.486  0.952E-01  0.946E-01
  -1.476  0.103E+00  0.102E+00
  -1.466  0.110E+00  0.110E+00
  -1.456  0.118E+00  0.117E+00
  -1.446  0.126E+00  0.125E+00
  -1.436  0.134E+00  0.133E+00
  -1.426  0.142E+00  0.141E+00
  -1.416  0.150E+00  0.149E+00
  -1.406  0.158E+00  0.157E+00
  -1.396  0.167E+00  0.166E+00
  -1.386  0.175E+00  0.174E+00
  -1.376  0.184E+00  0.183E+00
  -1.366  0.193E+00  0.191E+00
  -1.356  0.201E+00  0.200E+00
  -1.346  0.210E+00  0.209E+00
  -1.336  0.219E+00  0.218E+00
  -1.326  0.228E+00  0.227E+00
  -1.316  0.238E+00  0.236E+00
  -1.306  0.247E+00  0.245E+00
  -1.296  0.256E+00  0.255E+00
  -1.286  0.266E+00  0.264E+00
  -1.276  0.276E+00  0.274E+00
  -1.266  0.285E+00  0.283E+00
  -1.256  0.295E+00  0.293E+00
  -1.246  0.305E+00  0.303E+00
  -1.236  0.315E+00  0.313E+00
  -1.226  0.325E+00  0.323E+00
  -1.216  0.336E+00  0.333E+00
  -1.206  0.346E+00  0.344E+00
  -1.196  0.357E+00  0.354E+00
  -1.186  0.367E+00  0.365E+00
  -1.176  0.378E+00  0.375E+00
  -1.166  0.389E+00  0.386E+00
  -1.156  0.399E+00  0.396E+00
  -1.146  0.409E+00  0.406E+00
  -1.136  0.418E+00  0.415E+00
  -1.126  0.427E+00  0.424E+00
  -1.116  0.435E+00  0.432E+00
  -1.106  0.442E+00  0.439E+00
  -1.096  0.449E+00  0.446E+00
  -1.086  0.456E+00  0.453E+00
  -1.076  0.462E+00  0.459E+00
  -1.066  0.467E+00  0.464E+00
  -1.056  0.471E+00  0.468E+00
  -1.046  0.476E+00  0.473E+00
  -1.036  0.486E+00  0.483E+00
  -1.026  0.496E+00  0.493E+00
  -1.016  0.506E+00  0.502E+00
  -1.006  0.515E+00  0.512E+00
  -0.996  0.525E+00  0.521E+00
  -0.986  0.534E+00  0.530E+00
  -0.976  0.543E+00  0.539E+00
  -0.966  0.551E+00  0.547E+00
  -0.956  0.558E+00  0.554E+00
  -0.946  0.566E+00  0.562E+00
  -0.936  0.573E+00  0.569E+00
  -0.926  0.581E+00  0.577E+00
  -0.916  0.590E+00  0.586E+00
  -0.906  0.601E+00  0.597E+00
  -0.896  0.615E+00  0.611E+00
  -0.886  0.631E+00  0.626E+00
  -0.876  0.649E+00  0.644E+00
  -0.866  0.670E+00  0.665E+00
  -0.856  0.692E+00  0.687E+00
  -0.846  0.718E+00  0.712E+00
  -0.836  0.745E+00  0.739E+00
  -0.826  0.775E+00  0.769E+00
  -0.816  0.858E+00  0.851E+00
  -0.806  0.982E+00  0.974E+00
  -0.796  0.102E+01  0.101E+01
  -0.786  0.106E+01  0.105E+01
  -0.776  0.110E+01  0.109E+01
  -0.766  0.113E+01  0.112E+01
  -0.756  0.117E+01  0.116E+01
  -0.746  0.123E+01  0.122E+01
  -0.736  0.131E+01  0.130E+01
  -0.726  0.142E+01  0.141E+01
  -0.716  0.164E+01  0.162E+01
  -0.706  0.184E+01  0.183E+01
  -0.696  0.197E+01  0.196E+01
  -0.686  0.202E+01  0.200E+01
  -0.676  0.197E+01  0.195E+01
  -0.666  0.181E+01  0.180E+01
  -0.656  0.167E+01  0.165E+01
  -0.646  0.160E+01  0.158E+01
  -0.636  0.154E+01  0.152E+01
  -0.626  0.148E+01  0.147E+01
  -0.616  0.142E+01  0.141E+01
  -0.606  0.137E+01  0.136E+01
  -0.596  0.133E+01  0.131E+01
  -0.586  0.128E+01  0.127E+01
  -0.576  0.124E+01  0.123E+01
  -0.566  0.120E+01  0.119E+01
  -0.556  0.117E+01  0.116E+01
  -0.546  0.114E+01  0.113E+01
  -0.536  0.111E+01  0.110E+01
  -0.526  0.108E+01  0.107E+01
  -0.516  0.106E+01  0.105E+01
  -0.506  0.104E+01  0.103E+01
  -0.496  0.101E+01  0.101E+01
  -0.486  0.995E+00  0.986E+00
  -0.476  0.977E+00  0.968E+00
  -0.466  0.960E+00  0.951E+00
  -0.456  0.943E+00  0.935E+00
  -0.446  0.927E+00  0.919E+00
  -0.436  0.912E+00  0.904E+00
  -0.426  0.897E+00  0.889E+00
  -0.416  0.883E+00  0.875E+00
  -0.406  0.869E+00  0.861E+00
  -0.396  0.856E+00  0.848E+00
  -0.386  0.843E+00  0.835E+00
  -0.376  0.831E+00  0.823E+00
  -0.366  0.819E+00  0.812E+00
  -0.356  0.808E+00  0.800E+00
  -0.346  0.797E+00  0.790E+00
  -0.336  0.787E+00  0.780E+00
  -0.326  0.777E+00  0.770E+00
  -0.316  0.767E+00  0.761E+00
  -0.306  0.758E+00  0.752E+00
  -0.296  0.750E+00  0.743E+00
  -0.286  0.741E+00  0.735E+00
  -0.276  0.733E+00  0.727E+00
  -0.266  0.725E+00  0.719E+00
  -0.256  0.717E+00  0.711E+00
  -0.246  0.709E+00  0.703E+00
  -0.236  0.702E+00  0.696E+00
  -0.226  0.694E+00  0.687E+00
  -0.216  0.684E+00  0.678E+00
  -0.206  0.675E+00  0.669E+00
  -0.196  0.666E+00  0.660E+00
  -0.186  0.658E+00  0.653E+00
  -0.176  0.651E+00  0.645E+00
  -0.166  0.645E+00  0.639E+00
  -0.156  0.639E+00  0.633E+00
  -0.146  0.633E+00  0.628E+00
  -0.136  0.628E+00  0.623E+00
  -0.126  0.624E+00  0.619E+00
  -0.116  0.620E+00  0.614E+00
  -0.106  0.616E+00  0.610E+00
  -0.096  0.611E+00  0.606E+00
  -0.086  0.607E+00  0.602E+00
  -0.076  0.603E+00  0.598E+00
  -0.066  0.599E+00  0.594E+00
  -0.056  0.595E+00  0.590E+00
  -0.046  0.591E+00  0.586E+00
  -0.036  0.588E+00  0.582E+00
  -0.026  0.584E+00  0.579E+00
  -0.016  0.580E+00  0.575E+00
  -0.006  0.576E+00  0.571E+00
   0.004  0.573E+00  0.568E+00
   0.014  0.569E+00  0.564E+00
   0.024  0.566E+00  0.560E+00
   0.034  0.562E+00  0.557E+00
   0.044  0.559E+00  0.554E+00
   0.054  0.555E+00  0.550E+00
   0.064  0.552E+00  0.547E+00
   0.074  0.548E+00  0.543E+00
   0.084  0.545E+00  0.540E+00
   0.094  0.541E+00  0.537E+00
   0.104  0.538E+00  0.533E+00
   0.114  0.535E+00  0.530E+00
   0.124  0.531E+00  0.526E+00
   0.134  0.528E+00  0.523E+00
   0.144  0.524E+00  0.520E+00
   0.154  0.521E+00  0.516E+00
   0.164  0.518E+00  0.513E+00
   0.174  0.514E+00  0.510E+00
   0.184  0.511E+00  0.506E+00
   0.194  0.508E+00  0.503E+00
   0.204  0.505E+00  0.500E+00
   0.214  0.501E+00  0.497E+00
   0.224  0.498E+00  0.494E+00
   0.234  0.495E+00  0.490E+00
   0.244  0.492E+00  0.487E+00
   0.254  0.489E+00  0.484E+00
   0.264  0.485E+00  0.481E+00
   0.274  0.482E+00  0.478E+00
   0.284  0.479E+00  0.475E+00
   0.294  0.476E+00  0.472E+00
   0.304  0.473E+00  0.469E+00
   0.314  0.470E+00  0.465E+00
   0.324  0.467E+00  0.462E+00
   0.334  0.464E+00  0.459E+00
   0.344  0.461E+00  0.456E+00
   0.354  0.458E+00  0.453E+00
   0.364  0.455E+00  0.450E+00
   0.374  0.452E+00  0.447E+00
   0.384  0.449E+00  0.444E+00
   0.394  0.446E+00  0.442E+00
   0.404  0.443E+00  0.439E+00
   0.414  0.434E+00  0.430E+00
   0.424  0.426E+00  0.422E+00
   0.434  0.420E+00  0.416E+00
   0.444  0.417E+00  0.413E+00
   0.454  0.414E+00  0.410E+00
   0.464  0.411E+00  0.407E+00
   0.474  0.408E+00  0.404E+00
   0.484  0.406E+00  0.402E+00
   0.494  0.403E+00  0.399E+00
   0.504  0.401E+00  0.397E+00
   0.514  0.398E+00  0.394E+00
   0.524  0.396E+00  0.392E+00
   0.534  0.394E+00  0.390E+00
   0.544  0.391E+00  0.388E+00
   0.554  0.389E+00  0.386E+00
   0.564  0.387E+00  0.384E+00
   0.574  0.386E+00  0.382E+00
   0.584  0.384E+00  0.380E+00
   0.594  0.382E+00  0.379E+00
   0.604  0.381E+00  0.377E+00
   0.614  0.379E+00  0.375E+00
   0.624  0.378E+00  0.374E+00
   0.634  0.376E+00  0.372E+00
   0.644  0.374E+00  0.371E+00
   0.654  0.373E+00  0.369E+00
   0.664  0.371E+00  0.368E+00
   0.674  0.370E+00  0.366E+00
   0.684  0.368E+00  0.365E+00
   0.694  0.367E+00  0.363E+00
   0.704  0.365E+00  0.362E+00
   0.714  0.364E+00  0.360E+00
   0.724  0.362E+00  0.359E+00
   0.734  0.361E+00  0.357E+00
   0.744  0.359E+00  0.356E+00
   0.754  0.358E+00  0.354E+00
   0.764  0.356E+00  0.353E+00
   0.774  0.355E+00  0.352E+00
   0.784  0.354E+00  0.350E+00
   0.794  0.352E+00  0.349E+00
   0.804  0.351E+00  0.347E+00
   0.814  0.349E+00  0.346E+00
   0.824  0.348E+00  0.344E+00
   0.834  0.346E+00  0.343E+00
   0.844  0.345E+00  0.341E+00
   0.854  0.343E+00  0.340E+00
   0.864  0.342E+00  0.338E+00
   0.874  0.340E+00  0.337E+00
   0.884  0.339E+00  0.335E+00
   0.894  0.337E+00  0.334E+00
   0.904  0.336E+00  0.332E+00
   0.914  0.334E+00  0.331E+00
   0.924  0.332E+00  0.329E+00
   0.934  0.331E+00  0.327E+00
   0.944  0.329E+00  0.326E+00
   0.954  0.327E+00  0.324E+00
   0.964  0.326E+00  0.322E+00
   0.974  0.324E+00  0.320E+00
   0.984  0.322E+00  0.319E+00
   0.994  0.320E+00  0.317E+00
   1.004  0.318E+00  0.315E+00
   1.014  0.316E+00  0.313E+00
   1.024  0.314E+00  0.311E+00
   1.034  0.312E+00  0.309E+00
   1.044  0.310E+00  0.307E+00
   1.054  0.308E+00  0.305E+00
   1.064  0.306E+00  0.303E+00
   1.074  0.304E+00  0.301E+00
   1.084  0.302E+00  0.299E+00
   1.094  0.300E+00  0.297E+00
   1.104  0.298E+00  0.295E+00
   1.114  0.296E+00  0.293E+00
   1.124  0.294E+00  0.291E+00
   1.134  0.292E+00  0.289E+00
   1.144  0.290E+00  0.287E+00
   1.154  0.288E+00  0.285E+00
   1.164  0.286E+00  0.283E+00
   1.174  0.285E+00  0.282E+00
   1.184  0.283E+00  0.280E+00
   1.194  0.281E+00  0.278E+00
   1.204  0.279E+00  0.276E+00
   1.214  0.277E+00  0.274E+00
   1.224  0.274E+00  0.271E+00
   1.234  0.272E+00  0.269E+00
   1.244  0.269E+00  0.266E+00
   1.254  0.267E+00  0.264E+00
   1.264  0.264E+00  0.261E+00
   1.274  0.262E+00  0.259E+00
   1.284  0.260E+00  0.257E+00
   1.294  0.258E+00  0.255E+00
   1.304  0.256E+00  0.253E+00
   1.314  0.254E+00  0.252E+00
   1.324  0.253E+00  0.250E+00
   1.334  0.251E+00  0.248E+00
   1.344  0.250E+00  0.247E+00
   1.354  0.248E+00  0.246E+00
   1.364  0.247E+00  0.245E+00
   1.374  0.246E+00  0.244E+00
   1.384  0.245E+00  0.243E+00
   1.394  0.244E+00  0.242E+00
   1.404  0.244E+00  0.241E+00
   1.414  0.243E+00  0.240E+00
   1.424  0.242E+00  0.239E+00
   1.434  0.241E+00  0.238E+00
   1.444  0.240E+00  0.238E+00
   1.454  0.239E+00  0.237E+00
   1.464  0.239E+00  0.236E+00
   1.474  0.238E+00  0.235E+00
   1.484  0.237E+00  0.234E+00
   1.494  0.236E+00  0.234E+00
   1.504  0.235E+00  0.233E+00
   1.514  0.235E+00  0.232E+00
   1.524  0.234E+00  0.231E+00
   1.534  0.233E+00  0.230E+00
   1.544  0.232E+00  0.230E+00
   1.554  0.231E+00  0.229E+00
   1.564  0.231E+00  0.228E+00
   1.574  0.230E+00  0.227E+00
   1.584  0.229E+00  0.226E+00
   1.594  0.228E+00  0.226E+00
   1.604  0.227E+00  0.225E+00
   1.614  0.227E+00  0.224E+00
   1.624  0.229E+00  0.226E+00
   1.634  0.233E+00  0.231E+00
   1.644  0.241E+00  0.239E+00
   1.654  0.252E+00  0.249E+00
   1.664  0.266E+00  0.263E+00
   1.674  0.282E+00  0.279E+00
   1.684  0.302E+00  0.298E+00
   1.694  0.324E+00  0.321E+00
   1.704  0.350E+00  0.346E+00
   1.714  0.378E+00  0.374E+00
   1.724  0.409E+00  0.406E+00
   1.734  0.444E+00  0.440E+00
   1.744  0.481E+00  0.477E+00
   1.754  0.521E+00  0.517E+00
   1.764  0.565E+00  0.560E+00
   1.774  0.612E+00  0.607E+00
   1.784  0.784E+00  0.778E+00
   1.794  0.941E+00  0.933E+00
   1.804  0.903E+00  0.896E+00
   1.814  0.882E+00  0.875E+00
   1.824  0.888E+00  0.881E+00
   1.834  0.900E+00  0.893E+00
   1.844  0.918E+00  0.911E+00
   1.854  0.941E+00  0.934E+00
   1.864  0.970E+00  0.963E+00
   1.874  0.100E+01  0.997E+00
   1.884  0.104E+01  0.104E+01
   1.894  0.109E+01  0.108E+01
   1.904  0.113E+01  0.112E+01
   1.914  0.118E+01  0.117E+01
   1.924  0.123E+01  0.122E+01
   1.934  0.128E+01  0.127E+01
   1.944  0.132E+01  0.131E+01
   1.954  0.129E+01  0.128E+01
   1.964  0.127E+01  0.126E+01
   1.974  0.126E+01  0.125E+01
   1.984  0.124E+01  0.123E+01
   1.994  0.123E+01  0.122E+01
   2.004  0.123E+01  0.122E+01
   2.014  0.123E+01  0.122E+01
   2.024  0.123E+01  0.122E+01
   2.034  0.123E+01  0.122E+01
   2.044  0.122E+01  0.121E+01
   2.054  0.121E+01  0.120E+01
   2.064  0.120E+01  0.119E+01
   2.074  0.118E+01  0.117E+01
   2.084  0.116E+01  0.115E+01
   2.094  0.115E+01  0.114E+01
   2.104  0.113E+01  0.112E+01
   2.114  0.112E+01  0.111E+01
   2.124  0.111E+01  0.110E+01
   2.134  0.110E+01  0.109E+01
   2.144  0.110E+01  0.109E+01
   2.154  0.109E+01  0.108E+01
   2.164  0.108E+01  0.108E+01
   2.174  0.108E+01  0.107E+01
   2.184  0.107E+01  0.107E+01
   2.194  0.107E+01  0.106E+01
   2.204  0.107E+01  0.106E+01
   2.214  0.106E+01  0.105E+01
   2.224  0.106E+01  0.105E+01
   2.234  0.106E+01  0.105E+01
   2.244  0.105E+01  0.104E+01
   2.254  0.105E+01  0.104E+01
   2.264  0.105E+01  0.104E+01
   2.274  0.110E+01  0.109E+01
   2.284  0.115E+01  0.114E+01
   2.294  0.112E+01  0.112E+01
   2.304  0.110E+01  0.109E+01
   2.314  0.108E+01  0.107E+01
   2.324  0.106E+01  0.105E+01
   2.334  0.105E+01  0.104E+01
   2.344  0.103E+01  0.102E+01
   2.354  0.102E+01  0.102E+01
   2.364  0.102E+01  0.101E+01
   2.374  0.101E+01  0.100E+01
   2.384  0.101E+01  0.100E+01
   2.394  0.101E+01  0.100E+01
   2.404  0.101E+01  0.101E+01
   2.414  0.101E+01  0.101E+01
   2.424  0.102E+01  0.101E+01
   2.434  0.102E+01  0.101E+01
   2.444  0.102E+01  0.101E+01
   2.454  0.102E+01  0.101E+01
   2.464  0.102E+01  0.101E+01
   2.474  0.102E+01  0.101E+01
   2.484  0.102E+01  0.102E+01
   2.494  0.103E+01  0.102E+01
   2.504  0.103E+01  0.102E+01
   2.514  0.103E+01  0.102E+01
   2.524  0.104E+01  0.103E+01
   2.534  0.103E+01  0.102E+01
   2.544  0.103E+01  0.102E+01
   2.554  0.103E+01  0.102E+01
   2.564  0.102E+01  0.102E+01
   2.574  0.102E+01  0.101E+01
   2.584  0.102E+01  0.101E+01
   2.594  0.102E+01  0.101E+01
   2.604  0.102E+01  0.101E+01
   2.614  0.102E+01  0.101E+01
   2.624  0.102E+01  0.101E+01
   2.634  0.102E+01  0.101E+01
   2.644  0.102E+01  0.101E+01
   2.654  0.102E+01  0.102E+01
   2.664  0.103E+01  0.102E+01
   2.674  0.103E+01  0.102E+01
   2.684  0.103E+01  0.102E+01
   2.694  0.103E+01  0.102E+01
   2.704  0.104E+01  0.103E+01
   2.714  0.104E+01  0.103E+01
   2.724  0.104E+01  0.103E+01
   2.734  0.105E+01  0.104E+01
   2.744  0.105E+01  0.104E+01
   2.754  0.106E+01  0.105E+01
   2.764  0.106E+01  0.105E+01
   2.774  0.106E+01  0.106E+01
   2.784  0.107E+01  0.106E+01
   2.794  0.107E+01  0.106E+01
   2.804  0.108E+01  0.107E+01
   2.814  0.108E+01  0.107E+01
   2.824  0.108E+01  0.107E+01
   2.834  0.109E+01  0.108E+01
   2.844  0.109E+01  0.108E+01
   2.854  0.109E+01  0.108E+01
   2.864  0.109E+01  0.109E+01
   2.874  0.134E+01  0.132E+01
   2.884  0.132E+01  0.131E+01
   2.894  0.123E+01  0.122E+01
   2.904  0.118E+01  0.117E+01
   2.914  0.115E+01  0.114E+01
   2.924  0.116E+01  0.115E+01
   2.934  0.116E+01  0.115E+01
   2.944  0.117E+01  0.116E+01
   2.954  0.118E+01  0.117E+01
   2.964  0.119E+01  0.118E+01
   2.974  0.121E+01  0.120E+01
   2.984  0.122E+01  0.121E+01
   2.994  0.124E+01  0.123E+01
   3.004  0.126E+01  0.125E+01
   3.014  0.128E+01  0.127E+01
   3.024  0.130E+01  0.129E+01
   3.034  0.132E+01  0.131E+01
   3.044  0.135E+01  0.134E+01
   3.054  0.137E+01  0.136E+01
   3.064  0.140E+01  0.139E+01
   3.074  0.142E+01  0.140E+01
   3.084  0.139E+01  0.138E+01
   3.094  0.138E+01  0.137E+01
   3.104  0.137E+01  0.136E+01
   3.114  0.138E+01  0.137E+01
   3.124  0.139E+01  0.138E+01
   3.134  0.141E+01  0.139E+01
   3.144  0.141E+01  0.140E+01
   3.154  0.141E+01  0.140E+01
   3.164  0.142E+01  0.141E+01
   3.174  0.143E+01  0.141E+01
   3.184  0.144E+01  0.143E+01
   3.194  0.146E+01  0.144E+01
   3.204  0.147E+01  0.146E+01
   3.214  0.149E+01  0.148E+01
   3.224  0.152E+01  0.150E+01
   3.234  0.154E+01  0.153E+01
   3.244  0.157E+01  0.156E+01
   3.254  0.160E+01  0.159E+01
   3.264  0.164E+01  0.162E+01
   3.274  0.163E+01  0.162E+01
   3.284  0.155E+01  0.154E+01
   3.294  0.150E+01  0.149E+01
   3.304  0.148E+01  0.147E+01
   3.314  0.148E+01  0.147E+01
   3.324  0.148E+01  0.147E+01
   3.334  0.148E+01  0.147E+01
   3.344  0.148E+01  0.147E+01
   3.354  0.148E+01  0.147E+01
   3.364  0.148E+01  0.147E+01
   3.374  0.148E+01  0.147E+01
   3.384  0.148E+01  0.147E+01
   3.394  0.148E+01  0.147E+01
   3.404  0.148E+01  0.147E+01
   3.414  0.148E+01  0.147E+01
   3.424  0.148E+01  0.147E+01
   3.434  0.148E+01  0.147E+01
   3.444  0.148E+01  0.146E+01
   3.454  0.148E+01  0.146E+01
   3.464  0.147E+01  0.146E+01
   3.474  0.147E+01  0.146E+01
   3.484  0.147E+01  0.146E+01
   3.494  0.147E+01  0.145E+01
   3.504  0.147E+01  0.146E+01
   3.514  0.147E+01  0.146E+01
   3.524  0.147E+01  0.146E+01
   3.534  0.147E+01  0.146E+01
   3.544  0.147E+01  0.145E+01
   3.554  0.147E+01  0.145E+01
   3.564  0.146E+01  0.145E+01
   3.574  0.146E+01  0.145E+01
   3.584  0.146E+01  0.144E+01
   3.594  0.145E+01  0.144E+01
   3.604  0.144E+01  0.143E+01
   3.614  0.144E+01  0.143E+01
   3.624  0.143E+01  0.142E+01
   3.634  0.143E+01  0.141E+01
   3.644  0.142E+01  0.141E+01
   3.654  0.142E+01  0.140E+01
   3.664  0.141E+01  0.140E+01
   3.674  0.141E+01  0.140E+01
   3.684  0.141E+01  0.139E+01
   3.694  0.140E+01  0.139E+01
   3.704  0.140E+01  0.139E+01
   3.714  0.140E+01  0.138E+01
   3.724  0.139E+01  0.138E+01
   3.734  0.139E+01  0.137E+01
   3.744  0.138E+01  0.137E+01
   3.754  0.138E+01  0.137E+01
   3.764  0.138E+01  0.136E+01
   3.774  0.137E+01  0.136E+01
   3.784  0.137E+01  0.135E+01
   3.794  0.136E+01  0.135E+01
   3.804  0.136E+01  0.134E+01
   3.814  0.135E+01  0.134E+01
   3.824  0.135E+01  0.134E+01
   3.834  0.135E+01  0.134E+01
   3.844  0.135E+01  0.134E+01
   3.854  0.135E+01  0.134E+01
   3.864  0.135E+01  0.134E+01
   3.874  0.135E+01  0.134E+01
   3.884  0.135E+01  0.134E+01
   3.894  0.135E+01  0.134E+01
   3.904  0.135E+01  0.134E+01
   3.914  0.136E+01  0.134E+01
   3.924  0.136E+01  0.134E+01
   3.934  0.136E+01  0.134E+01
   3.944  0.136E+01  0.134E+01
   3.954  0.136E+01  0.134E+01
   3.964  0.135E+01  0.134E+01
   3.974  0.135E+01  0.134E+01
   3.984  0.135E+01  0.134E+01
   3.994  0.135E+01  0.134E+01
   4.004  0.135E+01  0.134E+01
   4.014  0.135E+01  0.133E+01
   4.024  0.135E+01  0.133E+01
   4.034  0.134E+01  0.133E+01
   4.044  0.134E+01  0.133E+01
   4.054  0.134E+01  0.132E+01
   4.064  0.134E+01  0.132E+01
   4.074  0.133E+01  0.132E+01
   4.084  0.133E+01  0.131E+01
   4.094  0.133E+01  0.131E+01
   4.104  0.132E+01  0.131E+01
   4.114  0.132E+01  0.130E+01
   4.124  0.131E+01  0.130E+01
   4.134  0.131E+01  0.129E+01
   4.144  0.130E+01  0.129E+01
   4.154  0.130E+01  0.128E+01
   4.164  0.129E+01  0.128E+01
   4.174  0.129E+01  0.128E+01
   4.184  0.129E+01  0.127E+01
   4.194  0.128E+01  0.127E+01
   4.204  0.128E+01  0.126E+01
   4.214  0.127E+01  0.126E+01
   4.224  0.127E+01  0.125E+01
   4.234  0.127E+01  0.125E+01
   4.244  0.126E+01  0.125E+01
   4.254  0.126E+01  0.125E+01
   4.264  0.126E+01  0.125E+01
   4.274  0.126E+01  0.125E+01
   4.284  0.126E+01  0.125E+01
   4.294  0.126E+01  0.124E+01
   4.304  0.126E+01  0.124E+01
   4.314  0.126E+01  0.124E+01
   4.324  0.126E+01  0.124E+01
   4.334  0.126E+01  0.124E+01
   4.344  0.126E+01  0.124E+01
   4.354  0.126E+01  0.124E+01
   4.364  0.126E+01  0.124E+01
   4.374  0.126E+01  0.124E+01
   4.384  0.126E+01  0.124E+01
   4.394  0.126E+01  0.124E+01
   4.404  0.126E+01  0.124E+01
   4.414  0.126E+01  0.124E+01
   4.424  0.126E+01  0.124E+01
   4.434  0.126E+01  0.124E+01
   4.444  0.126E+01  0.124E+01
   4.454  0.126E+01  0.124E+01
   4.464  0.126E+01  0.125E+01
   4.474  0.126E+01  0.125E+01
   4.484  0.126E+01  0.124E+01
   4.494  0.126E+01  0.124E+01
   4.504  0.126E+01  0.124E+01
   4.514  0.126E+01  0.124E+01
   4.524  0.125E+01  0.124E+01
   4.534  0.125E+01  0.123E+01
   4.544  0.124E+01  0.123E+01
   4.554  0.124E+01  0.122E+01
   4.564  0.123E+01  0.122E+01
   4.574  0.123E+01  0.121E+01
   4.584  0.123E+01  0.121E+01
   4.594  0.122E+01  0.121E+01
   4.604  0.122E+01  0.120E+01
   4.614  0.121E+01  0.120E+01
   4.624  0.121E+01  0.119E+01
   4.634  0.120E+01  0.119E+01
   4.644  0.120E+01  0.118E+01
   4.654  0.120E+01  0.118E+01
   4.664  0.119E+01  0.118E+01
   4.674  0.119E+01  0.117E+01
   4.684  0.119E+01  0.117E+01
   4.694  0.119E+01  0.117E+01
   4.704  0.119E+01  0.117E+01
   4.714  0.119E+01  0.117E+01
   4.724  0.119E+01  0.117E+01
   4.734  0.119E+01  0.117E+01
   4.744  0.118E+01  0.117E+01
   4.754  0.118E+01  0.116E+01
   4.764  0.117E+01  0.115E+01
   4.774  0.116E+01  0.114E+01
   4.784  0.115E+01  0.113E+01
   4.794  0.113E+01  0.112E+01
   4.804  0.112E+01  0.110E+01
   4.814  0.110E+01  0.109E+01
   4.824  0.109E+01  0.107E+01
   4.834  0.106E+01  0.105E+01
   4.844  0.104E+01  0.102E+01
   4.854  0.998E+00  0.984E+00
   4.864  0.957E+00  0.943E+00
   4.874  0.921E+00  0.907E+00
   4.884  0.891E+00  0.878E+00
   4.894  0.868E+00  0.855E+00
   4.904  0.850E+00  0.837E+00
   4.914  0.837E+00  0.825E+00
   4.924  0.825E+00  0.812E+00
   4.934  0.812E+00  0.800E+00
   4.944  0.799E+00  0.787E+00
   4.954  0.786E+00  0.774E+00
   4.964  0.773E+00  0.760E+00
   4.974  0.759E+00  0.747E+00
   4.984  0.746E+00  0.734E+00
   4.994  0.732E+00  0.720E+00
   5.004  0.718E+00  0.706E+00
   5.014  0.704E+00  0.692E+00
   5.024  0.689E+00  0.678E+00
   5.034  0.675E+00  0.664E+00
   5.044  0.660E+00  0.649E+00
   5.054  0.645E+00  0.635E+00
   5.064  0.632E+00  0.622E+00
   5.074  0.625E+00  0.614E+00
   5.084  0.617E+00  0.607E+00
   5.094  0.610E+00  0.599E+00
   5.104  0.602E+00  0.591E+00
   5.114  0.594E+00  0.584E+00
   5.124  0.587E+00  0.576E+00
   5.134  0.579E+00  0.569E+00
   5.144  0.571E+00  0.561E+00
   5.154  0.564E+00  0.554E+00
   5.164  0.556E+00  0.546E+00
   5.174  0.549E+00  0.539E+00
   5.184  0.542E+00  0.532E+00
   5.194  0.534E+00  0.525E+00
   5.204  0.528E+00  0.518E+00
   5.214  0.522E+00  0.512E+00
   5.224  0.517E+00  0.507E+00
   5.234  0.513E+00  0.503E+00
   5.244  0.510E+00  0.500E+00
   5.254  0.507E+00  0.498E+00
   5.264  0.506E+00  0.497E+00
   5.274  0.499E+00  0.490E+00
   5.284  0.492E+00  0.482E+00
   5.294  0.484E+00  0.475E+00
   5.304  0.477E+00  0.467E+00
   5.314  0.469E+00  0.460E+00
   5.324  0.462E+00  0.453E+00
   5.334  0.455E+00  0.446E+00
   5.344  0.448E+00  0.439E+00
   5.354  0.441E+00  0.432E+00
   5.364  0.435E+00  0.426E+00
   5.374  0.428E+00  0.419E+00
   5.384  0.422E+00  0.413E+00
   5.394  0.415E+00  0.406E+00
   5.404  0.409E+00  0.400E+00
   5.414  0.402E+00  0.394E+00
   5.424  0.396E+00  0.387E+00
   5.434  0.390E+00  0.381E+00
   5.444  0.383E+00  0.375E+00
   5.454  0.377E+00  0.368E+00
   5.464  0.370E+00  0.362E+00
   5.474  0.364E+00  0.355E+00
   5.484  0.357E+00  0.349E+00
   5.494  0.350E+00  0.342E+00
   5.504  0.344E+00  0.336E+00
   5.514  0.337E+00  0.329E+00
   5.524  0.331E+00  0.323E+00
   5.534  0.325E+00  0.317E+00
   5.544  0.318E+00  0.311E+00
   5.554  0.312E+00  0.305E+00
   5.564  0.306E+00  0.299E+00
   5.574  0.300E+00  0.293E+00
   5.584  0.294E+00  0.287E+00
   5.594  0.288E+00  0.281E+00
   5.604  0.282E+00  0.275E+00
   5.614  0.276E+00  0.269E+00
   5.624  0.270E+00  0.264E+00
   5.634  0.264E+00  0.258E+00
   5.644  0.258E+00  0.251E+00
   5.654  0.252E+00  0.245E+00
   5.664  0.245E+00  0.239E+00
   5.674  0.238E+00  0.232E+00
   5.684  0.231E+00  0.225E+00
   5.694  0.224E+00  0.218E+00
   5.704  0.217E+00  0.211E+00
   5.714  0.210E+00  0.204E+00
   5.724  0.203E+00  0.197E+00
   5.734  0.196E+00  0.191E+00
   5.744  0.190E+00  0.185E+00
   5.754  0.184E+00  0.179E+00
   5.764  0.178E+00  0.173E+00
   5.774  0.173E+00  0.168E+00
   5.784  0.167E+00  0.162E+00
   5.794  0.162E+00  0.157E+00
   5.804  0.157E+00  0.153E+00
   5.814  0.153E+00  0.148E+00
   5.824  0.149E+00  0.144E+00
   5.834  0.144E+00  0.140E+00
   5.844  0.141E+00  0.136E+00
   5.854  0.137E+00  0.133E+00
   5.864  0.134E+00  0.129E+00
   5.874  0.131E+00  0.126E+00
   5.884  0.128E+00  0.124E+00
   5.894  0.125E+00  0.121E+00
   5.904  0.123E+00  0.119E+00
   5.914  0.121E+00  0.117E+00
   5.924  0.973E-01  0.941E-01
   5.934  0.627E-01  0.607E-01
   5.944  0.447E-01  0.432E-01
   5.954  0.374E-01  0.361E-01
   5.964  0.309E-01  0.298E-01
   5.974  0.250E-01  0.241E-01
   5.984  0.197E-01  0.191E-01
   5.994  0.151E-01  0.146E-01
   6.004  0.111E-01  0.107E-01
   6.014  0.768E-02  0.741E-02
   6.024  0.490E-02  0.473E-02
   6.034  0.275E-02  0.265E-02
   6.044  0.121E-02  0.117E-02
   6.054  0.295E-03  0.284E-03
   6.064  0.000E+00  0.000E+00
   6.074  0.000E+00  0.000E+00
   6.084  0.000E+00  0.000E+00
   6.094  0.000E+00  0.000E+00
   6.104  0.000E+00  0.000E+00
   6.114  0.000E+00  0.000E+00
   6.124  0.000E+00  0.000E+00
   6.134  0.000E+00  0.000E+00
   6.144  0.000E+00  0.000E+00
   6.154  0.000E+00  0.000E+00
   6.164  0.000E+00  0.000E+00
   6.174  0.000E+00  0.000E+00
   6.184  0.000E+00  0.000E+00
   6.194  0.000E+00  0.000E+00
   6.204  0.000E+00  0.000E+00
   6.214  0.000E+00  0.000E+00
   6.224  0.000E+00  0.000E+00
   6.234  0.000E+00  0.000E+00
   6.244  0.000E+00  0.000E+00
   6.254  0.000E+00  0.000E+00
   6.264  0.000E+00  0.000E+00
   6.274  0.000E+00  0.000E+00
   6.284  0.000E+00  0.000E+00
   6.294  0.000E+00  0.000E+00
   6.304  0.000E+00  0.000E+00
   6.314  0.000E+00  0.000E+00
   6.324  0.000E+00  0.000E+00
   6.334  0.000E+00  0.000E+00
   6.344  0.000E+00  0.000E+00
   6.354  0.000E+00  0.000E+00
   6.364  0.000E+00  0.000E+00
   6.374  0.000E+00  0.000E+00
   6.384  0.000E+00  0.000E+00
   6.394  0.000E+00  0.000E+00
   6.404  0.000E+00  0.000E+00
   6.414  0.000E+00  0.000E+00
   6.424  0.000E+00  0.000E+00
   6.434  0.000E+00  0.000E+00
   6.444  0.000E+00  0.000E+00
   6.454  0.000E+00  0.000E+00
   6.464  0.000E+00  0.000E+00
   6.474  0.000E+00  0.000E+00
   6.484  0.000E+00  0.000E+00
   6.494  0.000E+00  0.000E+00
   6.504  0.000E+00  0.000E+00
   6.514  0.000E+00  0.000E+00
   6.524  0.000E+00  0.000E+00
   6.534  0.000E+00  0.000E+00
   6.544  0.000E+00  0.000E+00
   6.554  0.000E+00  0.000E+00
   6.564  0.000E+00  0.000E+00
   6.574  0.000E+00  0.000E+00
   6.584  0.282E-05  0.253E-05
   6.594  0.543E-03  0.485E-03
   6.604  0.202E-02  0.180E-02
   6.614  0.443E-02  0.394E-02
   6.624  0.777E-02  0.691E-02
   6.634  0.121E-01  0.107E-01
   6.644  0.173E-01  0.153E-01
   6.654  0.234E-01  0.207E-01
   6.664  0.305E-01  0.269E-01
   6.674  0.385E-01  0.339E-01
   6.684  0.475E-01  0.417E-01
   6.694  0.574E-01  0.503E-01
   6.704  0.682E-01  0.596E-01
   6.714  0.800E-01  0.698E-01
   6.724  0.926E-01  0.807E-01
   6.734  0.104E+00  0.908E-01
   6.744  0.114E+00  0.994E-01
   6.754  0.122E+00  0.106E+00
   6.764  0.128E+00  0.111E+00
   6.774  0.132E+00  0.115E+00
   6.784  0.133E+00  0.116E+00
   6.794  0.139E+00  0.122E+00
   6.804  0.147E+00  0.128E+00
   6.814  0.154E+00  0.134E+00
   6.824  0.161E+00  0.140E+00
   6.834  0.168E+00  0.146E+00
   6.844  0.175E+00  0.152E+00
   6.854  0.182E+00  0.158E+00
   6.864  0.188E+00  0.164E+00
   6.874  0.195E+00  0.170E+00
   6.884  0.202E+00  0.175E+00
   6.894  0.208E+00  0.181E+00
   6.904  0.215E+00  0.187E+00
   6.914  0.223E+00  0.193E+00
   6.924  0.230E+00  0.200E+00
   6.934  0.238E+00  0.206E+00
   6.944  0.245E+00  0.212E+00
   6.954  0.252E+00  0.219E+00
   6.964  0.260E+00  0.225E+00
   6.974  0.267E+00  0.231E+00
   6.984  0.274E+00  0.237E+00
   6.994  0.281E+00  0.243E+00
   7.004  0.288E+00  0.249E+00
   7.014  0.296E+00  0.255E+00
   7.024  0.303E+00  0.262E+00
   7.034  0.310E+00  0.267E+00
   7.044  0.317E+00  0.273E+00
   7.054  0.324E+00  0.279E+00
   7.064  0.331E+00  0.285E+00
   7.074  0.337E+00  0.291E+00
   7.084  0.344E+00  0.297E+00
   7.094  0.351E+00  0.303E+00
   7.104  0.358E+00  0.309E+00
   7.114  0.366E+00  0.315E+00
   7.124  0.373E+00  0.321E+00
   7.134  0.380E+00  0.327E+00
   7.144  0.388E+00  0.333E+00
   7.154  0.395E+00  0.340E+00
   7.164  0.403E+00  0.346E+00
   7.174  0.411E+00  0.352E+00
   7.184  0.418E+00  0.359E+00
   7.194  0.426E+00  0.365E+00
   7.204  0.433E+00  0.371E+00
   7.214  0.440E+00  0.377E+00
   7.224  0.448E+00  0.383E+00
   7.234  0.455E+00  0.389E+00
   7.244  0.463E+00  0.396E+00
   7.254  0.471E+00  0.402E+00
   7.264  0.480E+00  0.409E+00
   7.274  0.488E+00  0.416E+00
   7.284  0.496E+00  0.423E+00
   7.294  0.505E+00  0.430E+00
   7.304  0.514E+00  0.437E+00
   7.314  0.523E+00  0.444E+00
   7.324  0.532E+00  0.451E+00
   7.334  0.541E+00  0.458E+00
   7.344  0.550E+00  0.466E+00
   7.354  0.560E+00  0.474E+00
   7.364  0.568E+00  0.480E+00
   7.374  0.573E+00  0.484E+00
   7.384  0.578E+00  0.488E+00
   7.394  0.582E+00  0.491E+00
   7.404  0.587E+00  0.495E+00
   7.414  0.591E+00  0.498E+00
   7.424  0.595E+00  0.501E+00
   7.434  0.598E+00  0.504E+00
   7.444  0.602E+00  0.507E+00
   7.454  0.605E+00  0.509E+00
   7.464  0.608E+00  0.512E+00
   7.474  0.611E+00  0.514E+00
   7.484  0.614E+00  0.516E+00
   7.494  0.616E+00  0.518E+00
   7.504  0.618E+00  0.519E+00
   7.514  0.620E+00  0.521E+00
   7.524  0.621E+00  0.522E+00
   7.534  0.623E+00  0.523E+00
   7.544  0.627E+00  0.526E+00
   7.554  0.632E+00  0.530E+00
   7.564  0.636E+00  0.533E+00
   7.574  0.641E+00  0.537E+00
   7.584  0.646E+00  0.542E+00
   7.594  0.652E+00  0.546E+00
   7.604  0.658E+00  0.551E+00
   7.614  0.665E+00  0.557E+00
   7.624  0.672E+00  0.563E+00
   7.634  0.678E+00  0.569E+00
   7.644  0.686E+00  0.575E+00
   7.654  0.693E+00  0.581E+00
   7.664  0.700E+00  0.587E+00
   7.674  0.708E+00  0.593E+00
   7.684  0.716E+00  0.600E+00
   7.694  0.724E+00  0.607E+00
   7.704  0.732E+00  0.613E+00
   7.714  0.740E+00  0.620E+00
   7.724  0.748E+00  0.627E+00
   7.734  0.757E+00  0.635E+00
   7.744  0.765E+00  0.642E+00
   7.754  0.774E+00  0.649E+00
   7.764  0.783E+00  0.657E+00
   7.774  0.793E+00  0.665E+00
   7.784  0.802E+00  0.674E+00
   7.794  0.812E+00  0.682E+00
   7.804  0.823E+00  0.691E+00
   7.814  0.833E+00  0.700E+00
   7.824  0.844E+00  0.709E+00
   7.834  0.854E+00  0.718E+00
   7.844  0.865E+00  0.727E+00
   7.854  0.876E+00  0.736E+00
   7.864  0.888E+00  0.746E+00
   7.874  0.899E+00  0.756E+00
   7.884  0.911E+00  0.766E+00
   7.894  0.923E+00  0.776E+00
   7.904  0.935E+00  0.786E+00
   7.914  0.947E+00  0.796E+00
   7.924  0.959E+00  0.806E+00
   7.934  0.971E+00  0.817E+00
   7.944  0.984E+00  0.827E+00
   7.954  0.996E+00  0.838E+00
   7.964  0.101E+01  0.848E+00
   7.974  0.102E+01  0.859E+00
   7.984  0.103E+01  0.870E+00
   7.994  0.105E+01  0.881E+00
   8.004  0.106E+01  0.892E+00
   8.014  0.107E+01  0.904E+00
   8.024  0.109E+01  0.916E+00
   8.034  0.110E+01  0.928E+00
   8.044  0.112E+01  0.942E+00
   8.054  0.114E+01  0.958E+00
   8.064  0.116E+01  0.977E+00
   8.074  0.119E+01  0.100E+01
   8.084  0.123E+01  0.104E+01
   8.094  0.127E+01  0.108E+01
   8.104  0.132E+01  0.111E+01
   8.114  0.135E+01  0.114E+01
   8.124  0.139E+01  0.117E+01
   8.134  0.141E+01  0.120E+01
   8.144  0.144E+01  0.122E+01
   8.154  0.146E+01  0.124E+01
   8.164  0.148E+01  0.126E+01
   8.174  0.150E+01  0.127E+01
   8.184  0.152E+01  0.129E+01
   8.194  0.154E+01  0.130E+01
   8.204  0.155E+01  0.132E+01
   8.214  0.157E+01  0.133E+01
   8.224  0.158E+01  0.134E+01
   8.234  0.159E+01  0.135E+01
   8.244  0.161E+01  0.136E+01
   8.254  0.162E+01  0.137E+01
   8.264  0.163E+01  0.138E+01
   8.274  0.164E+01  0.139E+01
   8.284  0.165E+01  0.140E+01
   8.294  0.166E+01  0.141E+01
   8.304  0.167E+01  0.142E+01
   8.314  0.168E+01  0.142E+01
   8.324  0.169E+01  0.143E+01
   8.334  0.169E+01  0.144E+01
   8.344  0.171E+01  0.145E+01
   8.354  0.172E+01  0.146E+01
   8.364  0.174E+01  0.148E+01
   8.374  0.177E+01  0.151E+01
   8.384  0.180E+01  0.154E+01
   8.394  0.183E+01  0.157E+01
   8.404  0.187E+01  0.159E+01
   8.414  0.190E+01  0.162E+01
   8.424  0.193E+01  0.165E+01
   8.434  0.196E+01  0.167E+01
   8.444  0.197E+01  0.169E+01
   8.454  0.199E+01  0.170E+01
   8.464  0.199E+01  0.170E+01
   8.474  0.199E+01  0.170E+01
   8.484  0.199E+01  0.170E+01
   8.494  0.199E+01  0.169E+01
   8.504  0.198E+01  0.169E+01
   8.514  0.197E+01  0.168E+01
   8.524  0.196E+01  0.167E+01
   8.534  0.195E+01  0.166E+01
   8.544  0.194E+01  0.164E+01
   8.554  0.192E+01  0.163E+01
   8.564  0.190E+01  0.161E+01
   8.574  0.188E+01  0.159E+01
   8.584  0.186E+01  0.157E+01
   8.594  0.183E+01  0.155E+01
   8.604  0.180E+01  0.152E+01
   8.614  0.177E+01  0.149E+01
   8.624  0.171E+01  0.144E+01
   8.634  0.159E+01  0.133E+01
   8.644  0.149E+01  0.124E+01
   8.654  0.144E+01  0.120E+01
   8.664  0.141E+01  0.117E+01
   8.674  0.139E+01  0.115E+01
   8.684  0.136E+01  0.112E+01
   8.694  0.134E+01  0.110E+01
   8.704  0.131E+01  0.108E+01
   8.714  0.129E+01  0.106E+01
   8.724  0.127E+01  0.104E+01
   8.734  0.125E+01  0.102E+01
   8.744  0.123E+01  0.100E+01
   8.754  0.121E+01  0.981E+00
   8.764  0.119E+01  0.960E+00
   8.774  0.117E+01  0.940E+00
   8.784  0.115E+01  0.922E+00
   8.794  0.113E+01  0.906E+00
   8.804  0.112E+01  0.891E+00
   8.814  0.110E+01  0.878E+00
   8.824  0.109E+01  0.867E+00
   8.834  0.108E+01  0.858E+00
   8.844  0.107E+01  0.852E+00
   8.854  0.107E+01  0.846E+00
   8.864  0.106E+01  0.842E+00
   8.874  0.106E+01  0.838E+00
   8.884  0.106E+01  0.835E+00
   8.894  0.105E+01  0.831E+00
   8.904  0.105E+01  0.826E+00
   8.914  0.104E+01  0.820E+00
   8.924  0.103E+01  0.814E+00
   8.934  0.102E+01  0.807E+00
   8.944  0.102E+01  0.799E+00
   8.954  0.101E+01  0.791E+00
   8.964  0.996E+00  0.782E+00
   8.974  0.985E+00  0.772E+00
   8.984  0.973E+00  0.762E+00
   8.994  0.961E+00  0.751E+00
   9.004  0.948E+00  0.739E+00
   9.014  0.933E+00  0.727E+00
   9.024  0.914E+00  0.711E+00
   9.034  0.897E+00  0.696E+00
   9.044  0.881E+00  0.682E+00
   9.054  0.871E+00  0.673E+00
   9.064  0.864E+00  0.665E+00
   9.074  0.857E+00  0.658E+00
   9.084  0.851E+00  0.651E+00
   9.094  0.845E+00  0.645E+00
   9.104  0.839E+00  0.640E+00
   9.114  0.835E+00  0.635E+00
   9.124  0.831E+00  0.631E+00
   9.134  0.828E+00  0.628E+00
   9.144  0.825E+00  0.626E+00
   9.154  0.824E+00  0.624E+00
   9.164  0.825E+00  0.624E+00
   9.174  0.830E+00  0.628E+00
   9.184  0.840E+00  0.635E+00
   9.194  0.853E+00  0.645E+00
   9.204  0.871E+00  0.658E+00
   9.214  0.891E+00  0.674E+00
   9.224  0.915E+00  0.691E+00
   9.234  0.964E+00  0.733E+00
   9.244  0.115E+01  0.899E+00
   9.254  0.147E+01  0.120E+01
   9.264  0.144E+01  0.116E+01
   9.274  0.115E+01  0.881E+00
   9.284  0.120E+01  0.920E+00
   9.294  0.125E+01  0.965E+00
   9.304  0.132E+01  0.101E+01
   9.314  0.138E+01  0.107E+01
   9.324  0.145E+01  0.112E+01
   9.334  0.150E+01  0.117E+01
   9.344  0.156E+01  0.122E+01
   9.354  0.162E+01  0.127E+01
   9.364  0.168E+01  0.131E+01
   9.374  0.173E+01  0.136E+01
   9.384  0.178E+01  0.140E+01
   9.394  0.183E+01  0.144E+01
   9.404  0.186E+01  0.147E+01
   9.414  0.189E+01  0.150E+01
   9.424  0.191E+01  0.151E+01
   9.434  0.190E+01  0.152E+01
   9.444  0.192E+01  0.153E+01
   9.454  0.195E+01  0.156E+01
   9.464  0.200E+01  0.160E+01
   9.474  0.205E+01  0.164E+01
   9.484  0.210E+01  0.168E+01
   9.494  0.214E+01  0.171E+01
   9.504  0.217E+01  0.173E+01
   9.514  0.219E+01  0.175E+01
   9.524  0.221E+01  0.176E+01
   9.534  0.222E+01  0.176E+01
   9.544  0.222E+01  0.175E+01
   9.554  0.252E+01  0.199E+01
   9.564  0.233E+01  0.184E+01
   9.574  0.217E+01  0.171E+01
   9.584  0.205E+01  0.159E+01
   9.594  0.197E+01  0.151E+01
   9.604  0.192E+01  0.146E+01
   9.614  0.191E+01  0.145E+01
   9.624  0.193E+01  0.146E+01
   9.634  0.195E+01  0.147E+01
   9.644  0.196E+01  0.148E+01
   9.654  0.197E+01  0.148E+01
   9.664  0.197E+01  0.148E+01
   9.674  0.198E+01  0.148E+01
   9.684  0.198E+01  0.148E+01
   9.694  0.199E+01  0.148E+01
   9.704  0.199E+01  0.148E+01
   9.714  0.200E+01  0.149E+01
   9.724  0.200E+01  0.149E+01
   9.734  0.201E+01  0.149E+01
   9.744  0.201E+01  0.149E+01
   9.754  0.201E+01  0.149E+01
   9.764  0.199E+01  0.148E+01
   9.774  0.198E+01  0.148E+01
   9.784  0.199E+01  0.148E+01
   9.794  0.198E+01  0.147E+01
   9.804  0.196E+01  0.146E+01
   9.814  0.194E+01  0.144E+01
   9.824  0.192E+01  0.143E+01
   9.834  0.189E+01  0.141E+01
   9.844  0.187E+01  0.139E+01
   9.854  0.184E+01  0.137E+01
   9.864  0.182E+01  0.135E+01
   9.874  0.179E+01  0.133E+01
   9.884  0.176E+01  0.131E+01
   9.894  0.173E+01  0.129E+01
   9.904  0.170E+01  0.127E+01
   9.914  0.167E+01  0.124E+01
   9.924  0.164E+01  0.122E+01
   9.934  0.161E+01  0.120E+01
   9.944  0.157E+01  0.117E+01
   9.954  0.154E+01  0.115E+01
   9.964  0.151E+01  0.112E+01
   9.974  0.148E+01  0.110E+01
   9.984  0.146E+01  0.108E+01
   9.994  0.144E+01  0.107E+01
  10.004  0.141E+01  0.105E+01
  10.014  0.139E+01  0.103E+01
  10.024  0.137E+01  0.102E+01
  10.034  0.135E+01  0.100E+01
  10.044  0.134E+01  0.991E+00
  10.054  0.132E+01  0.977E+00
  10.064  0.130E+01  0.964E+00
  10.074  0.129E+01  0.952E+00
  10.084  0.127E+01  0.941E+00
  10.094  0.126E+01  0.930E+00
  10.104  0.125E+01  0.920E+00
  10.114  0.124E+01  0.912E+00
  10.124  0.123E+01  0.904E+00
  10.134  0.122E+01  0.898E+00
  10.144  0.121E+01  0.894E+00
  10.154  0.121E+01  0.890E+00
  10.164  0.121E+01  0.887E+00
  10.174  0.120E+01  0.884E+00
  10.184  0.120E+01  0.882E+00
  10.194  0.120E+01  0.880E+00
  10.204  0.120E+01  0.879E+00
  10.214  0.120E+01  0.879E+00
  10.224  0.121E+01  0.879E+00
  10.234  0.121E+01  0.881E+00
  10.244  0.122E+01  0.883E+00
  10.254  0.122E+01  0.883E+00
  10.264  0.122E+01  0.881E+00
  10.274  0.122E+01  0.876E+00
  10.284  0.121E+01  0.870E+00
  10.294  0.123E+01  0.873E+00
  10.304  0.136E+01  0.936E+00
  10.314  0.142E+01  0.964E+00
  10.324  0.137E+01  0.939E+00
  10.334  0.133E+01  0.915E+00
  10.344  0.129E+01  0.892E+00
  10.354  0.125E+01  0.871E+00
  10.364  0.121E+01  0.852E+00
  10.374  0.118E+01  0.834E+00
  10.384  0.115E+01  0.817E+00
  10.394  0.112E+01  0.803E+00
  10.404  0.110E+01  0.789E+00
  10.414  0.108E+01  0.778E+00
  10.424  0.106E+01  0.768E+00
  10.434  0.105E+01  0.760E+00
  10.444  0.103E+01  0.753E+00
  10.454  0.103E+01  0.749E+00
  10.464  0.102E+01  0.745E+00
  10.474  0.102E+01  0.744E+00
  10.484  0.102E+01  0.743E+00
  10.494  0.102E+01  0.744E+00
  10.504  0.102E+01  0.745E+00
  10.514  0.102E+01  0.747E+00
  10.524  0.103E+01  0.749E+00
  10.534  0.103E+01  0.751E+00
  10.544  0.104E+01  0.753E+00
  10.554  0.104E+01  0.755E+00
  10.564  0.105E+01  0.761E+00
  10.574  0.110E+01  0.792E+00
  10.584  0.119E+01  0.856E+00
  10.594  0.132E+01  0.956E+00
  10.604  0.144E+01  0.106E+01
  10.614  0.148E+01  0.109E+01
  10.624  0.151E+01  0.111E+01
  10.634  0.152E+01  0.111E+01
  10.644  0.151E+01  0.110E+01
  10.654  0.149E+01  0.107E+01
  10.664  0.145E+01  0.104E+01
  10.674  0.140E+01  0.997E+00
  10.684  0.136E+01  0.971E+00
  10.694  0.133E+01  0.956E+00
  10.704  0.132E+01  0.946E+00
  10.714  0.130E+01  0.934E+00
  10.724  0.129E+01  0.920E+00
  10.734  0.127E+01  0.904E+00
  10.744  0.124E+01  0.887E+00
  10.754  0.122E+01  0.870E+00
  10.764  0.120E+01  0.852E+00
  10.774  0.118E+01  0.834E+00
  10.784  0.115E+01  0.817E+00
  10.794  0.113E+01  0.800E+00
  10.804  0.111E+01  0.784E+00
  10.814  0.110E+01  0.770E+00
  10.824  0.108E+01  0.759E+00
  10.834  0.107E+01  0.751E+00
  10.844  0.106E+01  0.746E+00
  10.854  0.106E+01  0.746E+00
  10.864  0.107E+01  0.750E+00
  10.874  0.108E+01  0.758E+00
  10.884  0.109E+01  0.768E+00
  10.894  0.104E+01  0.726E+00
  10.904  0.100E+01  0.694E+00
  10.914  0.976E+00  0.673E+00
  10.924  0.958E+00  0.660E+00
  10.934  0.100E+01  0.679E+00
  10.944  0.106E+01  0.708E+00
  10.954  0.109E+01  0.727E+00
  10.964  0.109E+01  0.733E+00
  10.974  0.110E+01  0.737E+00
  10.984  0.111E+01  0.740E+00
  10.994  0.111E+01  0.743E+00
  11.004  0.112E+01  0.747E+00
  11.014  0.112E+01  0.750E+00
  11.024  0.113E+01  0.753E+00
  11.034  0.119E+01  0.797E+00
  11.044  0.127E+01  0.854E+00
  11.054  0.133E+01  0.900E+00
  11.064  0.138E+01  0.934E+00
  11.074  0.141E+01  0.957E+00
  11.084  0.142E+01  0.968E+00
  11.094  0.142E+01  0.967E+00
  11.104  0.140E+01  0.954E+00
  11.114  0.137E+01  0.929E+00
  11.124  0.132E+01  0.892E+00
  11.134  0.126E+01  0.843E+00
  11.144  0.123E+01  0.820E+00
  11.154  0.122E+01  0.818E+00
  11.164  0.122E+01  0.815E+00
  11.174  0.122E+01  0.813E+00
  11.184  0.122E+01  0.811E+00
  11.194  0.122E+01  0.810E+00
  11.204  0.122E+01  0.809E+00
  11.214  0.122E+01  0.808E+00
  11.224  0.122E+01  0.808E+00
  11.234  0.122E+01  0.808E+00
  11.244  0.122E+01  0.808E+00
  11.254  0.122E+01  0.808E+00
  11.264  0.122E+01  0.809E+00
  11.274  0.123E+01  0.810E+00
  11.284  0.123E+01  0.811E+00
  11.294  0.124E+01  0.813E+00
  11.304  0.124E+01  0.815E+00
  11.314  0.124E+01  0.816E+00
  11.324  0.124E+01  0.815E+00
  11.334  0.124E+01  0.814E+00
  11.344  0.124E+01  0.812E+00
  11.354  0.124E+01  0.811E+00
  11.364  0.124E+01  0.810E+00
  11.374  0.124E+01  0.808E+00
  11.384  0.124E+01  0.806E+00
  11.394  0.123E+01  0.804E+00
  11.404  0.123E+01  0.802E+00
  11.414  0.123E+01  0.800E+00
  11.424  0.123E+01  0.796E+00
  11.434  0.122E+01  0.792E+00
  11.444  0.121E+01  0.788E+00
  11.454  0.120E+01  0.780E+00
  11.464  0.119E+01  0.772E+00
  11.474  0.118E+01  0.766E+00
  11.484  0.117E+01  0.760E+00
  11.494  0.116E+01  0.755E+00
  11.504  0.115E+01  0.751E+00
  11.514  0.115E+01  0.748E+00
  11.524  0.114E+01  0.746E+00
  11.534  0.114E+01  0.745E+00
  11.544  0.114E+01  0.745E+00
  11.554  0.114E+01  0.745E+00
  11.564  0.114E+01  0.746E+00
  11.574  0.114E+01  0.747E+00
  11.584  0.114E+01  0.748E+00
  11.594  0.115E+01  0.750E+00
  11.604  0.115E+01  0.752E+00
  11.614  0.115E+01  0.755E+00
  11.624  0.116E+01  0.758E+00
  11.634  0.116E+01  0.761E+00
  11.644  0.117E+01  0.765E+00
  11.654  0.117E+01  0.770E+00
  11.664  0.118E+01  0.774E+00
  11.674  0.118E+01  0.778E+00
  11.684  0.119E+01  0.781E+00
  11.694  0.119E+01  0.783E+00
  11.704  0.119E+01  0.783E+00
  11.714  0.119E+01  0.780E+00
  11.724  0.119E+01  0.780E+00
  11.734  0.119E+01  0.778E+00
  11.744  0.118E+01  0.775E+00
  11.754  0.117E+01  0.769E+00
  11.764  0.117E+01  0.764E+00
  11.774  0.116E+01  0.759E+00
  11.784  0.115E+01  0.753E+00
  11.794  0.115E+01  0.748E+00
  11.804  0.114E+01  0.743E+00
  11.814  0.114E+01  0.738E+00
  11.824  0.113E+01  0.733E+00
  11.834  0.112E+01  0.727E+00
  11.844  0.111E+01  0.722E+00
  11.854  0.111E+01  0.718E+00
  11.864  0.110E+01  0.714E+00
  11.874  0.110E+01  0.712E+00
  11.884  0.110E+01  0.711E+00
  11.894  0.110E+01  0.712E+00
  11.904  0.111E+01  0.714E+00
  11.914  0.111E+01  0.717E+00
  11.924  0.112E+01  0.720E+00
  11.934  0.113E+01  0.725E+00
  11.944  0.112E+01  0.719E+00
  11.954  0.111E+01  0.705E+00
  11.964  0.109E+01  0.691E+00
  11.974  0.107E+01  0.677E+00
  11.984  0.104E+01  0.662E+00
  11.994  0.102E+01  0.648E+00
  12.004  0.100E+01  0.634E+00
  12.014  0.981E+00  0.621E+00
  12.024  0.960E+00  0.608E+00
  12.034  0.938E+00  0.595E+00
  12.044  0.917E+00  0.583E+00
  12.054  0.895E+00  0.571E+00
  12.064  0.875E+00  0.561E+00
  12.074  0.856E+00  0.552E+00
  12.084  0.838E+00  0.544E+00
  12.094  0.826E+00  0.538E+00
  12.104  0.818E+00  0.536E+00
  12.114  0.799E+00  0.524E+00
  12.124  0.801E+00  0.525E+00
  12.134  0.806E+00  0.527E+00
  12.144  0.811E+00  0.530E+00
  12.154  0.816E+00  0.532E+00
  12.164  0.822E+00  0.535E+00
  12.174  0.827E+00  0.538E+00
  12.184  0.833E+00  0.540E+00
  12.194  0.838E+00  0.542E+00
  12.204  0.842E+00  0.544E+00
  12.214  0.846E+00  0.546E+00
  12.224  0.850E+00  0.547E+00
  12.234  0.853E+00  0.547E+00
  12.244  0.855E+00  0.548E+00
  12.254  0.857E+00  0.548E+00
  12.264  0.858E+00  0.547E+00
  12.274  0.859E+00  0.547E+00
  12.284  0.860E+00  0.547E+00
  12.294  0.862E+00  0.547E+00
  12.304  0.869E+00  0.550E+00
  12.314  0.878E+00  0.554E+00
  12.324  0.888E+00  0.558E+00
  12.334  0.898E+00  0.563E+00
  12.344  0.908E+00  0.568E+00
  12.354  0.919E+00  0.573E+00
  12.364  0.931E+00  0.579E+00
  12.374  0.943E+00  0.586E+00
  12.384  0.956E+00  0.592E+00
  12.394  0.969E+00  0.599E+00
  12.404  0.983E+00  0.607E+00
  12.414  0.998E+00  0.615E+00
  12.424  0.101E+01  0.623E+00
  12.434  0.103E+01  0.632E+00
  12.444  0.104E+01  0.641E+00
  12.454  0.106E+01  0.650E+00
  12.464  0.108E+01  0.659E+00
  12.474  0.110E+01  0.669E+00
  12.484  0.111E+01  0.679E+00
  12.494  0.113E+01  0.689E+00
  12.504  0.115E+01  0.700E+00
  12.514  0.117E+01  0.711E+00
  12.524  0.111E+01  0.675E+00
  12.534  0.108E+01  0.657E+00
  12.544  0.108E+01  0.658E+00
  12.554  0.109E+01  0.659E+00
  12.564  0.109E+01  0.659E+00
  12.574  0.109E+01  0.659E+00
  12.584  0.109E+01  0.659E+00
  12.594  0.109E+01  0.659E+00
  12.604  0.109E+01  0.658E+00
  12.614  0.109E+01  0.657E+00
  12.624  0.109E+01  0.656E+00
  12.634  0.108E+01  0.654E+00
  12.644  0.108E+01  0.652E+00
  12.654  0.108E+01  0.650E+00
  12.664  0.107E+01  0.648E+00
  12.674  0.107E+01  0.645E+00
  12.684  0.107E+01  0.643E+00
  12.694  0.106E+01  0.640E+00
  12.704  0.106E+01  0.638E+00
  12.714  0.106E+01  0.637E+00
  12.724  0.106E+01  0.637E+00
  12.734  0.106E+01  0.638E+00
  12.744  0.107E+01  0.640E+00
  12.754  0.108E+01  0.645E+00
  12.764  0.109E+01  0.650E+00
  12.774  0.109E+01  0.654E+00
  12.784  0.110E+01  0.657E+00
  12.794  0.110E+01  0.660E+00
  12.804  0.111E+01  0.661E+00
  12.814  0.111E+01  0.662E+00
  12.824  0.111E+01  0.662E+00
  12.834  0.111E+01  0.661E+00
  12.844  0.111E+01  0.658E+00
  12.854  0.110E+01  0.655E+00
  12.864  0.109E+01  0.652E+00
  12.874  0.109E+01  0.647E+00
  12.884  0.108E+01  0.642E+00
  12.894  0.107E+01  0.637E+00
  12.904  0.106E+01  0.633E+00
  12.914  0.105E+01  0.628E+00
  12.924  0.104E+01  0.622E+00
  12.934  0.104E+01  0.617E+00
  12.944  0.103E+01  0.612E+00
  12.954  0.102E+01  0.607E+00
  12.964  0.101E+01  0.601E+00
  12.974  0.100E+01  0.596E+00
  12.984  0.992E+00  0.590E+00
  12.994  0.982E+00  0.584E+00
  13.004  0.973E+00  0.578E+00
  13.014  0.963E+00  0.572E+00
  13.024  0.954E+00  0.566E+00
  13.034  0.944E+00  0.560E+00
  13.044  0.934E+00  0.554E+00
  13.054  0.924E+00  0.548E+00
  13.064  0.914E+00  0.542E+00
  13.074  0.904E+00  0.535E+00
  13.084  0.894E+00  0.529E+00
  13.094  0.882E+00  0.521E+00
  13.104  0.869E+00  0.513E+00
  13.114  0.855E+00  0.504E+00
  13.124  0.839E+00  0.495E+00
  13.134  0.822E+00  0.484E+00
  13.144  0.804E+00  0.474E+00
  13.154  0.785E+00  0.463E+00
  13.164  0.779E+00  0.460E+00
  13.174  0.773E+00  0.456E+00
  13.184  0.767E+00  0.452E+00
  13.194  0.761E+00  0.448E+00
  13.204  0.754E+00  0.444E+00
  13.214  0.748E+00  0.439E+00
  13.224  0.741E+00  0.435E+00
  13.234  0.733E+00  0.430E+00
  13.244  0.726E+00  0.426E+00
  13.254  0.719E+00  0.421E+00
  13.264  0.711E+00  0.416E+00
  13.274  0.703E+00  0.411E+00
  13.284  0.695E+00  0.406E+00
  13.294  0.687E+00  0.401E+00
  13.304  0.679E+00  0.396E+00
  13.314  0.675E+00  0.393E+00
  13.324  0.671E+00  0.390E+00
  13.334  0.667E+00  0.388E+00
  13.344  0.663E+00  0.385E+00
  13.354  0.659E+00  0.382E+00
  13.364  0.655E+00  0.380E+00
  13.374  0.651E+00  0.377E+00
  13.384  0.647E+00  0.374E+00
  13.394  0.643E+00  0.372E+00
  13.404  0.639E+00  0.369E+00
  13.414  0.636E+00  0.366E+00
  13.424  0.632E+00  0.364E+00
  13.434  0.628E+00  0.361E+00
  13.444  0.625E+00  0.359E+00
  13.454  0.621E+00  0.356E+00
  13.464  0.617E+00  0.354E+00
  13.474  0.614E+00  0.351E+00
  13.484  0.610E+00  0.348E+00
  13.494  0.606E+00  0.346E+00
  13.504  0.602E+00  0.343E+00
  13.514  0.598E+00  0.340E+00
  13.524  0.594E+00  0.338E+00
  13.534  0.593E+00  0.337E+00
  13.544  0.593E+00  0.337E+00
  13.554  0.593E+00  0.337E+00
  13.564  0.591E+00  0.336E+00
  13.574  0.588E+00  0.335E+00
  13.584  0.584E+00  0.333E+00
  13.594  0.580E+00  0.330E+00
  13.604  0.573E+00  0.326E+00
  13.614  0.567E+00  0.322E+00
  13.624  0.560E+00  0.318E+00
  13.634  0.554E+00  0.315E+00
  13.644  0.550E+00  0.311E+00
  13.654  0.546E+00  0.307E+00
  13.664  0.543E+00  0.304E+00
  13.674  0.542E+00  0.301E+00
  13.684  0.542E+00  0.299E+00
  13.694  0.543E+00  0.297E+00
  13.704  0.545E+00  0.295E+00
  13.714  0.547E+00  0.294E+00
  13.724  0.548E+00  0.292E+00
  13.734  0.549E+00  0.291E+00
  13.744  0.549E+00  0.289E+00
  13.754  0.549E+00  0.288E+00
  13.764  0.549E+00  0.287E+00
  13.774  0.548E+00  0.285E+00
  13.784  0.546E+00  0.284E+00
  13.794  0.543E+00  0.282E+00
  13.804  0.540E+00  0.281E+00
  13.814  0.535E+00  0.279E+00
  13.824  0.530E+00  0.277E+00
  13.834  0.524E+00  0.274E+00
  13.844  0.518E+00  0.272E+00
  13.854  0.516E+00  0.271E+00
  13.864  0.514E+00  0.270E+00
  13.874  0.512E+00  0.269E+00
  13.884  0.511E+00  0.269E+00
  13.894  0.510E+00  0.269E+00
  13.904  0.510E+00  0.269E+00
  13.914  0.509E+00  0.269E+00
  13.924  0.509E+00  0.269E+00
  13.934  0.509E+00  0.270E+00
  13.944  0.507E+00  0.270E+00
  13.954  0.492E+00  0.265E+00
  13.964  0.460E+00  0.254E+00
  13.974  0.412E+00  0.237E+00
  13.984  0.367E+00  0.219E+00
  13.994  0.329E+00  0.204E+00
  14.004  0.298E+00  0.191E+00
  14.014  0.275E+00  0.180E+00
  14.024  0.260E+00  0.173E+00
  14.034  0.253E+00  0.169E+00
  14.044  0.250E+00  0.168E+00
  14.054  0.248E+00  0.166E+00
  14.064  0.245E+00  0.165E+00
  14.074  0.243E+00  0.163E+00
  14.084  0.241E+00  0.162E+00
  14.094  0.238E+00  0.160E+00
  14.104  0.236E+00  0.159E+00
  14.114  0.234E+00  0.157E+00
  14.124  0.232E+00  0.156E+00
  14.134  0.230E+00  0.155E+00
  14.144  0.227E+00  0.153E+00
  14.154  0.225E+00  0.152E+00
  14.164  0.223E+00  0.151E+00
  14.174  0.221E+00  0.149E+00
  14.184  0.219E+00  0.148E+00
  14.194  0.217E+00  0.147E+00
  14.204  0.215E+00  0.145E+00
  14.214  0.213E+00  0.144E+00
  14.224  0.211E+00  0.143E+00
  14.234  0.210E+00  0.142E+00
  14.244  0.208E+00  0.141E+00
  14.254  0.206E+00  0.139E+00
  14.264  0.204E+00  0.138E+00
  14.274  0.202E+00  0.137E+00
  14.284  0.200E+00  0.136E+00
  14.294  0.199E+00  0.135E+00
  14.304  0.197E+00  0.134E+00
  14.314  0.195E+00  0.133E+00
  14.324  0.194E+00  0.132E+00
  14.334  0.192E+00  0.131E+00
  14.344  0.191E+00  0.130E+00
  14.354  0.189E+00  0.129E+00
  14.364  0.188E+00  0.128E+00
  14.374  0.186E+00  0.127E+00
  14.384  0.185E+00  0.126E+00
  14.394  0.184E+00  0.125E+00
  14.404  0.182E+00  0.124E+00
  14.414  0.181E+00  0.124E+00
  14.424  0.180E+00  0.123E+00
  14.434  0.179E+00  0.122E+00
  14.444  0.178E+00  0.121E+00
  14.454  0.177E+00  0.121E+00
  14.464  0.176E+00  0.120E+00
  14.474  0.175E+00  0.120E+00
  14.484  0.174E+00  0.119E+00
  14.494  0.173E+00  0.118E+00
  14.504  0.172E+00  0.118E+00
  14.514  0.171E+00  0.118E+00
  14.524  0.171E+00  0.117E+00
  14.534  0.170E+00  0.117E+00
  14.544  0.169E+00  0.116E+00
  14.554  0.169E+00  0.116E+00
  14.564  0.168E+00  0.116E+00
  14.574  0.168E+00  0.116E+00
  14.584  0.168E+00  0.115E+00
  14.594  0.167E+00  0.115E+00
  14.604  0.167E+00  0.115E+00
  14.614  0.168E+00  0.116E+00
  14.624  0.169E+00  0.117E+00
  14.634  0.169E+00  0.117E+00
  14.644  0.170E+00  0.118E+00
  14.654  0.171E+00  0.118E+00
  14.664  0.171E+00  0.118E+00
  14.674  0.172E+00  0.119E+00
  14.684  0.172E+00  0.119E+00
  14.694  0.172E+00  0.119E+00
  14.704  0.173E+00  0.120E+00
  14.714  0.173E+00  0.120E+00
  14.724  0.174E+00  0.120E+00
  14.734  0.174E+00  0.121E+00
  14.744  0.174E+00  0.121E+00
  14.754  0.174E+00  0.121E+00
  14.764  0.175E+00  0.121E+00
  14.774  0.175E+00  0.121E+00
  14.784  0.175E+00  0.121E+00
  14.794  0.175E+00  0.121E+00
  14.804  0.175E+00  0.121E+00
  14.814  0.175E+00  0.121E+00
  14.824  0.175E+00  0.121E+00
  14.834  0.176E+00  0.122E+00
  14.844  0.177E+00  0.123E+00
  14.854  0.178E+00  0.123E+00
  14.864  0.179E+00  0.124E+00
  14.874  0.179E+00  0.124E+00
  14.884  0.180E+00  0.125E+00
  14.894  0.180E+00  0.125E+00
  14.904  0.180E+00  0.125E+00
  14.914  0.180E+00  0.125E+00
  14.924  0.180E+00  0.125E+00
  14.934  0.180E+00  0.125E+00
  14.944  0.179E+00  0.124E+00
  14.954  0.178E+00  0.123E+00
  14.964  0.177E+00  0.123E+00
  14.974  0.176E+00  0.122E+00
  14.984  0.175E+00  0.121E+00
  14.994  0.173E+00  0.120E+00
  15.004  0.171E+00  0.118E+00
  15.014  0.169E+00  0.117E+00
  15.024  0.166E+00  0.115E+00
  15.034  0.162E+00  0.112E+00
  15.044  0.158E+00  0.109E+00
  15.054  0.153E+00  0.105E+00
  15.064  0.147E+00  0.101E+00
  15.074  0.141E+00  0.970E-01
  15.084  0.134E+00  0.921E-01
  15.094  0.126E+00  0.869E-01
  15.104  0.118E+00  0.813E-01
  15.114  0.109E+00  0.753E-01
  15.124  0.100E+00  0.690E-01
  15.134  0.902E-01  0.623E-01
  15.144  0.797E-01  0.553E-01
  15.154  0.686E-01  0.479E-01
  15.164  0.649E-01  0.455E-01
  15.174  0.634E-01  0.446E-01
  15.184  0.620E-01  0.438E-01
  15.194  0.606E-01  0.430E-01
  15.204  0.592E-01  0.421E-01
  15.214  0.579E-01  0.413E-01
  15.224  0.565E-01  0.405E-01
  15.234  0.552E-01  0.396E-01
  15.244  0.538E-01  0.388E-01
  15.254  0.525E-01  0.380E-01
  15.264  0.512E-01  0.372E-01
  15.274  0.500E-01  0.364E-01
  15.284  0.487E-01  0.356E-01
  15.294  0.475E-01  0.348E-01
  15.304  0.462E-01  0.340E-01
  15.314  0.450E-01  0.333E-01
  15.324  0.438E-01  0.325E-01
  15.334  0.427E-01  0.317E-01
  15.344  0.415E-01  0.310E-01
  15.354  0.404E-01  0.302E-01
  15.364  0.392E-01  0.295E-01
  15.374  0.381E-01  0.287E-01
  15.384  0.370E-01  0.280E-01
  15.394  0.359E-01  0.273E-01
  15.404  0.349E-01  0.265E-01
  15.414  0.338E-01  0.258E-01
  15.424  0.328E-01  0.251E-01
  15.434  0.318E-01  0.244E-01
  15.444  0.308E-01  0.237E-01
  15.454  0.298E-01  0.230E-01
  15.464  0.288E-01  0.224E-01
  15.474  0.279E-01  0.217E-01
  15.484  0.269E-01  0.210E-01
  15.494  0.260E-01  0.204E-01
  15.504  0.251E-01  0.197E-01
  15.514  0.242E-01  0.191E-01
  15.524  0.233E-01  0.185E-01
  15.534  0.225E-01  0.178E-01
  15.544  0.216E-01  0.172E-01
  15.554  0.208E-01  0.166E-01
  15.564  0.200E-01  0.160E-01
  15.574  0.192E-01  0.154E-01
  15.584  0.184E-01  0.149E-01
  15.594  0.177E-01  0.143E-01
  15.604  0.169E-01  0.137E-01
  15.614  0.162E-01  0.132E-01
  15.624  0.155E-01  0.126E-01
  15.634  0.148E-01  0.121E-01
  15.644  0.141E-01  0.116E-01
  15.654  0.134E-01  0.111E-01
  15.664  0.128E-01  0.106E-01
  15.674  0.122E-01  0.101E-01
  15.684  0.116E-01  0.960E-02
  15.694  0.110E-01  0.913E-02
  15.704  0.104E-01  0.867E-02
  15.714  0.980E-02  0.822E-02
  15.724  0.925E-02  0.778E-02
  15.734  0.871E-02  0.735E-02
  15.744  0.819E-02  0.693E-02
  15.754  0.768E-02  0.652E-02
  15.764  0.720E-02  0.612E-02
  15.774  0.672E-02  0.574E-02
  15.784  0.627E-02  0.537E-02
  15.794  0.583E-02  0.500E-02
  15.804  0.540E-02  0.465E-02
  15.814  0.499E-02  0.431E-02
  15.824  0.460E-02  0.399E-02
  15.834  0.423E-02  0.367E-02
  15.844  0.387E-02  0.337E-02
  15.854  0.352E-02  0.308E-02
  15.864  0.319E-02  0.280E-02
  15.874  0.288E-02  0.253E-02
  15.884  0.259E-02  0.228E-02
  15.894  0.231E-02  0.204E-02
  15.904  0.204E-02  0.181E-02
  15.914  0.179E-02  0.159E-02
  15.924  0.156E-02  0.139E-02
  15.934  0.135E-02  0.120E-02
  15.944  0.115E-02  0.103E-02
  15.954  0.964E-03  0.866E-03
  15.964  0.796E-03  0.717E-03
  15.974  0.644E-03  0.582E-03
  15.984  0.508E-03  0.461E-03
  15.994  0.389E-03  0.353E-03
  16.004  0.285E-03  0.260E-03
  16.014  0.198E-03  0.180E-03
  16.024  0.126E-03  0.115E-03
  16.034  0.704E-04  0.647E-04
  16.044  0.309E-04  0.285E-04
  16.054  0.746E-05  0.689E-05
  16.064  0.000E+00  0.000E+00
