#  E (eV)   dos(E)     Int dos(E) EFermi =    0.897 eV
 -18.626  0.1387E+00  0.1403E-02
 -18.616  0.1995E+00  0.3102E-02
 -18.606  0.2513E+00  0.5363E-02
 -18.596  0.2939E+00  0.8097E-02
 -18.586  0.3274E+00  0.1121E-01
 -18.576  0.3518E+00  0.1462E-01
 -18.566  0.3671E+00  0.1822E-01
 -18.556  0.3732E+00  0.2193E-01
 -18.546  0.3754E+00  0.2580E-01
 -18.536  0.2731E+00  0.2897E-01
 -18.526  0.2760E+00  0.3171E-01
 -18.516  0.2790E+00  0.3449E-01
 -18.506  0.2819E+00  0.3729E-01
 -18.496  0.2848E+00  0.4013E-01
 -18.486  0.2876E+00  0.4299E-01
 -18.476  0.2905E+00  0.4588E-01
 -18.466  0.2933E+00  0.4880E-01
 -18.456  0.2962E+00  0.5175E-01
 -18.446  0.2990E+00  0.5472E-01
 -18.436  0.3018E+00  0.5773E-01
 -18.426  0.3046E+00  0.6076E-01
 -18.416  0.3073E+00  0.6382E-01
 -18.406  0.3101E+00  0.6690E-01
 -18.396  0.3128E+00  0.7002E-01
 -18.386  0.3155E+00  0.7316E-01
 -18.376  0.3182E+00  0.7633E-01
 -18.366  0.3209E+00  0.7953E-01
 -18.356  0.3236E+00  0.8275E-01
 -18.346  0.3263E+00  0.8600E-01
 -18.336  0.3290E+00  0.8927E-01
 -18.326  0.3292E+00  0.9258E-01
 -18.316  0.3233E+00  0.9584E-01
 -18.306  0.3180E+00  0.9904E-01
 -18.296  0.3133E+00  0.1022E+00
 -18.286  0.3093E+00  0.1053E+00
 -18.276  0.3058E+00  0.1084E+00
 -18.266  0.3030E+00  0.1114E+00
 -18.256  0.3008E+00  0.1144E+00
 -18.246  0.2992E+00  0.1174E+00
 -18.236  0.2979E+00  0.1204E+00
 -18.226  0.2957E+00  0.1234E+00
 -18.216  0.2958E+00  0.1264E+00
 -18.206  0.2967E+00  0.1293E+00
 -18.196  0.2977E+00  0.1323E+00
 -18.186  0.2987E+00  0.1353E+00
 -18.176  0.2996E+00  0.1383E+00
 -18.166  0.3006E+00  0.1413E+00
 -18.156  0.3016E+00  0.1443E+00
 -18.146  0.3025E+00  0.1473E+00
 -18.136  0.3035E+00  0.1503E+00
 -18.126  0.3044E+00  0.1534E+00
 -18.116  0.3054E+00  0.1564E+00
 -18.106  0.3064E+00  0.1595E+00
 -18.096  0.3073E+00  0.1625E+00
 -18.086  0.3083E+00  0.1656E+00
 -18.076  0.3092E+00  0.1687E+00
 -18.066  0.3102E+00  0.1718E+00
 -18.056  0.3111E+00  0.1749E+00
 -18.046  0.3121E+00  0.1780E+00
 -18.036  0.3130E+00  0.1812E+00
 -18.026  0.3140E+00  0.1843E+00
 -18.016  0.3149E+00  0.1874E+00
 -18.006  0.3159E+00  0.1906E+00
 -17.996  0.3168E+00  0.1938E+00
 -17.986  0.3178E+00  0.1969E+00
 -17.976  0.3187E+00  0.2001E+00
 -17.966  0.3196E+00  0.2033E+00
 -17.956  0.3206E+00  0.2065E+00
 -17.946  0.3215E+00  0.2097E+00
 -17.936  0.3225E+00  0.2129E+00
 -17.926  0.3239E+00  0.2162E+00
 -17.916  0.3179E+00  0.2194E+00
 -17.906  0.3080E+00  0.2225E+00
 -17.896  0.3076E+00  0.2256E+00
 -17.886  0.3072E+00  0.2286E+00
 -17.876  0.3068E+00  0.2317E+00
 -17.866  0.3065E+00  0.2348E+00
 -17.856  0.3062E+00  0.2378E+00
 -17.846  0.3059E+00  0.2409E+00
 -17.836  0.3057E+00  0.2440E+00
 -17.826  0.3054E+00  0.2470E+00
 -17.816  0.3053E+00  0.2501E+00
 -17.806  0.3051E+00  0.2531E+00
 -17.796  0.3050E+00  0.2562E+00
 -17.786  0.3049E+00  0.2592E+00
 -17.776  0.3048E+00  0.2623E+00
 -17.766  0.3048E+00  0.2653E+00
 -17.756  0.3048E+00  0.2684E+00
 -17.746  0.3048E+00  0.2714E+00
 -17.736  0.3049E+00  0.2745E+00
 -17.726  0.3049E+00  0.2775E+00
 -17.716  0.3051E+00  0.2806E+00
 -17.706  0.3050E+00  0.2836E+00
 -17.696  0.3051E+00  0.2867E+00
 -17.686  0.3056E+00  0.2897E+00
 -17.676  0.3061E+00  0.2928E+00
 -17.666  0.3066E+00  0.2958E+00
 -17.656  0.3071E+00  0.2989E+00
 -17.646  0.3076E+00  0.3020E+00
 -17.636  0.3081E+00  0.3051E+00
 -17.626  0.3086E+00  0.3081E+00
 -17.616  0.3091E+00  0.3112E+00
 -17.606  0.3096E+00  0.3143E+00
 -17.596  0.3101E+00  0.3174E+00
 -17.586  0.3106E+00  0.3205E+00
 -17.576  0.3111E+00  0.3236E+00
 -17.566  0.3116E+00  0.3267E+00
 -17.556  0.3121E+00  0.3299E+00
 -17.546  0.3126E+00  0.3330E+00
 -17.536  0.3131E+00  0.3361E+00
 -17.526  0.3136E+00  0.3393E+00
 -17.516  0.3141E+00  0.3424E+00
 -17.506  0.3146E+00  0.3455E+00
 -17.496  0.3151E+00  0.3487E+00
 -17.486  0.3156E+00  0.3518E+00
 -17.476  0.3161E+00  0.3550E+00
 -17.466  0.3166E+00  0.3582E+00
 -17.456  0.3171E+00  0.3613E+00
 -17.446  0.3176E+00  0.3645E+00
 -17.436  0.3181E+00  0.3677E+00
 -17.426  0.3186E+00  0.3709E+00
 -17.416  0.3191E+00  0.3740E+00
 -17.406  0.3196E+00  0.3772E+00
 -17.396  0.3201E+00  0.3804E+00
 -17.386  0.3190E+00  0.3836E+00
 -17.376  0.3174E+00  0.3868E+00
 -17.366  0.3159E+00  0.3900E+00
 -17.356  0.3145E+00  0.3931E+00
 -17.346  0.3133E+00  0.3963E+00
 -17.336  0.3122E+00  0.3994E+00
 -17.326  0.3112E+00  0.4025E+00
 -17.316  0.3104E+00  0.4056E+00
 -17.306  0.3098E+00  0.4087E+00
 -17.296  0.3090E+00  0.4118E+00
 -17.286  0.3077E+00  0.4149E+00
 -17.276  0.3078E+00  0.4180E+00
 -17.266  0.3079E+00  0.4211E+00
 -17.256  0.3080E+00  0.4241E+00
 -17.246  0.3081E+00  0.4272E+00
 -17.236  0.3082E+00  0.4303E+00
 -17.226  0.3083E+00  0.4334E+00
 -17.216  0.3084E+00  0.4365E+00
 -17.206  0.3085E+00  0.4396E+00
 -17.196  0.3086E+00  0.4426E+00
 -17.186  0.3087E+00  0.4457E+00
 -17.176  0.3089E+00  0.4488E+00
 -17.166  0.3090E+00  0.4519E+00
 -17.156  0.3091E+00  0.4550E+00
 -17.146  0.3093E+00  0.4581E+00
 -17.136  0.3094E+00  0.4612E+00
 -17.126  0.3096E+00  0.4643E+00
 -17.116  0.3097E+00  0.4674E+00
 -17.106  0.3099E+00  0.4705E+00
 -17.096  0.3100E+00  0.4736E+00
 -17.086  0.3102E+00  0.4767E+00
 -17.076  0.3104E+00  0.4798E+00
 -17.066  0.3106E+00  0.4829E+00
 -17.056  0.3107E+00  0.4860E+00
 -17.046  0.3109E+00  0.4891E+00
 -17.036  0.3111E+00  0.4922E+00
 -17.026  0.3113E+00  0.4953E+00
 -17.016  0.3115E+00  0.4984E+00
 -17.006  0.3117E+00  0.5015E+00
 -16.996  0.3119E+00  0.5047E+00
 -16.986  0.3121E+00  0.5078E+00
 -16.976  0.3120E+00  0.5109E+00
 -16.966  0.3123E+00  0.5140E+00
 -16.956  0.3126E+00  0.5172E+00
 -16.946  0.3129E+00  0.5203E+00
 -16.936  0.3133E+00  0.5234E+00
 -16.926  0.3136E+00  0.5265E+00
 -16.916  0.3139E+00  0.5297E+00
 -16.906  0.3143E+00  0.5328E+00
 -16.896  0.3146E+00  0.5360E+00
 -16.886  0.3149E+00  0.5391E+00
 -16.876  0.3152E+00  0.5423E+00
 -16.866  0.3156E+00  0.5454E+00
 -16.856  0.3159E+00  0.5486E+00
 -16.846  0.3162E+00  0.5517E+00
 -16.836  0.3166E+00  0.5549E+00
 -16.826  0.3169E+00  0.5581E+00
 -16.816  0.3172E+00  0.5612E+00
 -16.806  0.3175E+00  0.5644E+00
 -16.796  0.3179E+00  0.5676E+00
 -16.786  0.3182E+00  0.5708E+00
 -16.776  0.3185E+00  0.5740E+00
 -16.766  0.3188E+00  0.5771E+00
 -16.756  0.3192E+00  0.5803E+00
 -16.746  0.3195E+00  0.5835E+00
 -16.736  0.3198E+00  0.5867E+00
 -16.726  0.3202E+00  0.5899E+00
 -16.716  0.3205E+00  0.5931E+00
 -16.706  0.3208E+00  0.5963E+00
 -16.696  0.3211E+00  0.5995E+00
 -16.686  0.3214E+00  0.6028E+00
 -16.676  0.3190E+00  0.6060E+00
 -16.666  0.3156E+00  0.6091E+00
 -16.656  0.3153E+00  0.6123E+00
 -16.646  0.3151E+00  0.6154E+00
 -16.636  0.3149E+00  0.6186E+00
 -16.626  0.3147E+00  0.6217E+00
 -16.616  0.3145E+00  0.6249E+00
 -16.606  0.3144E+00  0.6280E+00
 -16.596  0.3142E+00  0.6312E+00
 -16.586  0.3140E+00  0.6343E+00
 -16.576  0.3139E+00  0.6374E+00
 -16.566  0.3138E+00  0.6406E+00
 -16.556  0.3137E+00  0.6437E+00
 -16.546  0.3136E+00  0.6469E+00
 -16.536  0.3135E+00  0.6500E+00
 -16.526  0.3134E+00  0.6531E+00
 -16.516  0.3133E+00  0.6563E+00
 -16.506  0.3132E+00  0.6594E+00
 -16.496  0.3132E+00  0.6625E+00
 -16.486  0.3132E+00  0.6657E+00
 -16.476  0.3131E+00  0.6688E+00
 -16.466  0.3130E+00  0.6719E+00
 -16.456  0.3123E+00  0.6750E+00
 -16.446  0.3125E+00  0.6782E+00
 -16.436  0.3126E+00  0.6813E+00
 -16.426  0.3128E+00  0.6844E+00
 -16.416  0.3130E+00  0.6875E+00
 -16.406  0.3132E+00  0.6907E+00
 -16.396  0.3133E+00  0.6938E+00
 -16.386  0.3135E+00  0.6969E+00
 -16.376  0.3137E+00  0.7001E+00
 -16.366  0.3139E+00  0.7032E+00
 -16.356  0.3140E+00  0.7064E+00
 -16.346  0.3142E+00  0.7095E+00
 -16.336  0.3144E+00  0.7126E+00
 -16.326  0.3146E+00  0.7158E+00
 -16.316  0.3148E+00  0.7189E+00
 -16.306  0.3150E+00  0.7221E+00
 -16.296  0.3151E+00  0.7252E+00
 -16.286  0.3153E+00  0.7284E+00
 -16.276  0.3155E+00  0.7315E+00
 -16.266  0.3157E+00  0.7347E+00
 -16.256  0.3159E+00  0.7379E+00
 -16.246  0.3161E+00  0.7410E+00
 -16.236  0.3163E+00  0.7442E+00
 -16.226  0.3165E+00  0.7473E+00
 -16.216  0.3167E+00  0.7505E+00
 -16.206  0.3168E+00  0.7537E+00
 -16.196  0.3170E+00  0.7568E+00
 -16.186  0.3172E+00  0.7600E+00
 -16.176  0.3174E+00  0.7632E+00
 -16.166  0.3176E+00  0.7664E+00
 -16.156  0.3178E+00  0.7695E+00
 -16.146  0.3180E+00  0.7727E+00
 -16.136  0.3182E+00  0.7759E+00
 -16.126  0.3184E+00  0.7791E+00
 -16.116  0.3186E+00  0.7823E+00
 -16.106  0.3189E+00  0.7855E+00
 -16.096  0.3191E+00  0.7886E+00
 -16.086  0.3193E+00  0.7918E+00
 -16.076  0.3195E+00  0.7950E+00
 -16.066  0.3197E+00  0.7982E+00
 -16.056  0.3193E+00  0.8014E+00
 -16.046  0.3195E+00  0.8046E+00
 -16.036  0.3198E+00  0.8078E+00
 -16.026  0.3200E+00  0.8110E+00
 -16.016  0.3203E+00  0.8142E+00
 -16.006  0.3205E+00  0.8174E+00
 -15.996  0.3208E+00  0.8206E+00
 -15.986  0.3210E+00  0.8238E+00
 -15.976  0.3213E+00  0.8270E+00
 -15.966  0.3216E+00  0.8303E+00
 -15.956  0.3218E+00  0.8335E+00
 -15.946  0.3221E+00  0.8367E+00
 -15.936  0.3223E+00  0.8399E+00
 -15.926  0.3226E+00  0.8431E+00
 -15.916  0.3229E+00  0.8464E+00
 -15.906  0.3231E+00  0.8496E+00
 -15.896  0.3234E+00  0.8528E+00
 -15.886  0.3236E+00  0.8561E+00
 -15.876  0.3239E+00  0.8593E+00
 -15.866  0.3241E+00  0.8625E+00
 -15.856  0.3232E+00  0.8658E+00
 -15.846  0.3226E+00  0.8690E+00
 -15.836  0.3221E+00  0.8722E+00
 -15.826  0.3217E+00  0.8755E+00
 -15.816  0.3213E+00  0.8787E+00
 -15.806  0.3209E+00  0.8819E+00
 -15.796  0.3206E+00  0.8851E+00
 -15.786  0.3203E+00  0.8883E+00
 -15.776  0.3201E+00  0.8915E+00
 -15.766  0.3199E+00  0.8947E+00
 -15.756  0.3192E+00  0.8979E+00
 -15.746  0.3182E+00  0.9011E+00
 -15.736  0.3183E+00  0.9043E+00
 -15.726  0.3184E+00  0.9074E+00
 -15.716  0.3184E+00  0.9106E+00
 -15.706  0.3185E+00  0.9138E+00
 -15.696  0.3186E+00  0.9170E+00
 -15.686  0.3187E+00  0.9202E+00
 -15.676  0.3188E+00  0.9234E+00
 -15.666  0.3189E+00  0.9266E+00
 -15.656  0.3190E+00  0.9297E+00
 -15.646  0.3191E+00  0.9329E+00
 -15.636  0.3192E+00  0.9361E+00
 -15.626  0.3193E+00  0.9393E+00
 -15.616  0.3194E+00  0.9425E+00
 -15.606  0.3195E+00  0.9457E+00
 -15.596  0.3197E+00  0.9489E+00
 -15.586  0.3198E+00  0.9521E+00
 -15.576  0.3199E+00  0.9553E+00
 -15.566  0.3200E+00  0.9585E+00
 -15.556  0.3202E+00  0.9617E+00
 -15.546  0.3203E+00  0.9649E+00
 -15.536  0.3204E+00  0.9681E+00
 -15.526  0.3205E+00  0.9713E+00
 -15.516  0.3207E+00  0.9745E+00
 -15.506  0.3208E+00  0.9777E+00
 -15.496  0.3210E+00  0.9809E+00
 -15.486  0.3211E+00  0.9841E+00
 -15.476  0.3213E+00  0.9874E+00
 -15.466  0.3214E+00  0.9906E+00
 -15.456  0.3215E+00  0.9938E+00
 -15.446  0.3183E+00  0.9970E+00
 -15.436  0.3184E+00  0.1000E+01
 -15.426  0.3186E+00  0.1003E+01
 -15.416  0.3188E+00  0.1007E+01
 -15.406  0.3190E+00  0.1010E+01
 -15.396  0.3193E+00  0.1013E+01
 -15.386  0.3195E+00  0.1016E+01
 -15.376  0.3197E+00  0.1019E+01
 -15.366  0.3199E+00  0.1023E+01
 -15.356  0.3202E+00  0.1026E+01
 -15.346  0.3204E+00  0.1029E+01
 -15.336  0.3206E+00  0.1032E+01
 -15.326  0.3209E+00  0.1035E+01
 -15.316  0.3211E+00  0.1039E+01
 -15.306  0.3214E+00  0.1042E+01
 -15.296  0.3216E+00  0.1045E+01
 -15.286  0.3218E+00  0.1048E+01
 -15.276  0.3221E+00  0.1051E+01
 -15.266  0.3224E+00  0.1055E+01
 -15.256  0.3226E+00  0.1058E+01
 -15.246  0.3229E+00  0.1061E+01
 -15.236  0.3231E+00  0.1064E+01
 -15.226  0.3234E+00  0.1068E+01
 -15.216  0.3236E+00  0.1071E+01
 -15.206  0.3239E+00  0.1074E+01
 -15.196  0.3242E+00  0.1077E+01
 -15.186  0.3245E+00  0.1080E+01
 -15.176  0.3247E+00  0.1084E+01
 -15.166  0.3250E+00  0.1087E+01
 -15.156  0.3253E+00  0.1090E+01
 -15.146  0.3256E+00  0.1093E+01
 -15.136  0.3258E+00  0.1097E+01
 -15.126  0.3261E+00  0.1100E+01
 -15.116  0.3264E+00  0.1103E+01
 -15.106  0.3267E+00  0.1107E+01
 -15.096  0.3270E+00  0.1110E+01
 -15.086  0.3273E+00  0.1113E+01
 -15.076  0.3276E+00  0.1116E+01
 -15.066  0.3279E+00  0.1120E+01
 -15.056  0.3282E+00  0.1123E+01
 -15.046  0.3285E+00  0.1126E+01
 -15.036  0.3288E+00  0.1129E+01
 -15.026  0.3291E+00  0.1133E+01
 -15.016  0.3294E+00  0.1136E+01
 -15.006  0.3297E+00  0.1139E+01
 -14.996  0.3301E+00  0.1143E+01
 -14.986  0.3304E+00  0.1146E+01
 -14.976  0.3307E+00  0.1149E+01
 -14.966  0.3310E+00  0.1153E+01
 -14.956  0.3299E+00  0.1156E+01
 -14.946  0.3287E+00  0.1159E+01
 -14.936  0.3277E+00  0.1162E+01
 -14.926  0.3274E+00  0.1166E+01
 -14.916  0.3278E+00  0.1169E+01
 -14.906  0.3281E+00  0.1172E+01
 -14.896  0.3284E+00  0.1176E+01
 -14.886  0.3287E+00  0.1179E+01
 -14.876  0.3285E+00  0.1182E+01
 -14.866  0.3246E+00  0.1185E+01
 -14.856  0.3227E+00  0.1189E+01
 -14.846  0.3217E+00  0.1192E+01
 -14.836  0.3221E+00  0.1195E+01
 -14.826  0.3225E+00  0.1198E+01
 -14.816  0.3229E+00  0.1202E+01
 -14.806  0.3233E+00  0.1205E+01
 -14.796  0.3237E+00  0.1208E+01
 -14.786  0.3241E+00  0.1211E+01
 -14.776  0.3245E+00  0.1214E+01
 -14.766  0.3249E+00  0.1218E+01
 -14.756  0.3253E+00  0.1221E+01
 -14.746  0.3257E+00  0.1224E+01
 -14.736  0.3262E+00  0.1227E+01
 -14.726  0.3266E+00  0.1231E+01
 -14.716  0.3270E+00  0.1234E+01
 -14.706  0.3274E+00  0.1237E+01
 -14.696  0.3278E+00  0.1241E+01
 -14.686  0.3282E+00  0.1244E+01
 -14.676  0.3288E+00  0.1247E+01
 -14.666  0.3274E+00  0.1250E+01
 -14.656  0.3229E+00  0.1254E+01
 -14.646  0.3199E+00  0.1257E+01
 -14.636  0.3181E+00  0.1260E+01
 -14.626  0.3186E+00  0.1263E+01
 -14.616  0.3192E+00  0.1266E+01
 -14.606  0.3197E+00  0.1270E+01
 -14.596  0.3202E+00  0.1273E+01
 -14.586  0.3206E+00  0.1276E+01
 -14.576  0.3211E+00  0.1279E+01
 -14.566  0.3216E+00  0.1282E+01
 -14.556  0.3221E+00  0.1286E+01
 -14.546  0.3226E+00  0.1289E+01
 -14.536  0.3232E+00  0.1292E+01
 -14.526  0.3237E+00  0.1295E+01
 -14.516  0.3243E+00  0.1299E+01
 -14.506  0.3248E+00  0.1302E+01
 -14.496  0.3254E+00  0.1305E+01
 -14.486  0.3260E+00  0.1308E+01
 -14.476  0.3266E+00  0.1312E+01
 -14.466  0.3273E+00  0.1315E+01
 -14.456  0.3279E+00  0.1318E+01
 -14.446  0.3285E+00  0.1321E+01
 -14.436  0.3292E+00  0.1325E+01
 -14.426  0.3299E+00  0.1328E+01
 -14.416  0.3305E+00  0.1331E+01
 -14.406  0.3312E+00  0.1335E+01
 -14.396  0.3319E+00  0.1338E+01
 -14.386  0.3327E+00  0.1341E+01
 -14.376  0.3334E+00  0.1345E+01
 -14.366  0.3341E+00  0.1348E+01
 -14.356  0.3349E+00  0.1351E+01
 -14.346  0.3357E+00  0.1355E+01
 -14.336  0.3364E+00  0.1358E+01
 -14.326  0.3372E+00  0.1361E+01
 -14.316  0.3380E+00  0.1365E+01
 -14.306  0.3388E+00  0.1368E+01
 -14.296  0.3397E+00  0.1372E+01
 -14.286  0.3387E+00  0.1375E+01
 -14.276  0.3334E+00  0.1378E+01
 -14.266  0.3296E+00  0.1382E+01
 -14.256  0.3277E+00  0.1385E+01
 -14.246  0.3258E+00  0.1388E+01
 -14.236  0.3240E+00  0.1391E+01
 -14.226  0.3251E+00  0.1395E+01
 -14.216  0.3264E+00  0.1398E+01
 -14.206  0.3276E+00  0.1401E+01
 -14.196  0.3288E+00  0.1404E+01
 -14.186  0.3299E+00  0.1408E+01
 -14.176  0.3311E+00  0.1411E+01
 -14.166  0.3322E+00  0.1414E+01
 -14.156  0.3333E+00  0.1418E+01
 -14.146  0.3343E+00  0.1421E+01
 -14.136  0.3354E+00  0.1424E+01
 -14.126  0.3365E+00  0.1428E+01
 -14.116  0.3376E+00  0.1431E+01
 -14.106  0.3387E+00  0.1435E+01
 -14.096  0.3398E+00  0.1438E+01
 -14.086  0.3410E+00  0.1441E+01
 -14.076  0.3422E+00  0.1445E+01
 -14.066  0.3434E+00  0.1448E+01
 -14.056  0.3446E+00  0.1452E+01
 -14.046  0.3459E+00  0.1455E+01
 -14.036  0.3472E+00  0.1459E+01
 -14.026  0.3484E+00  0.1462E+01
 -14.016  0.3498E+00  0.1465E+01
 -14.006  0.3511E+00  0.1469E+01
 -13.996  0.3524E+00  0.1472E+01
 -13.986  0.3538E+00  0.1476E+01
 -13.976  0.3552E+00  0.1480E+01
 -13.966  0.3566E+00  0.1483E+01
 -13.956  0.3581E+00  0.1487E+01
 -13.946  0.3595E+00  0.1490E+01
 -13.936  0.3610E+00  0.1494E+01
 -13.926  0.3625E+00  0.1498E+01
 -13.916  0.3640E+00  0.1501E+01
 -13.906  0.3656E+00  0.1505E+01
 -13.896  0.3672E+00  0.1508E+01
 -13.886  0.3687E+00  0.1512E+01
 -13.876  0.3703E+00  0.1516E+01
 -13.866  0.3720E+00  0.1520E+01
 -13.856  0.3736E+00  0.1523E+01
 -13.846  0.3753E+00  0.1527E+01
 -13.836  0.3770E+00  0.1531E+01
 -13.826  0.3787E+00  0.1535E+01
 -13.816  0.3803E+00  0.1538E+01
 -13.806  0.3812E+00  0.1542E+01
 -13.796  0.3715E+00  0.1546E+01
 -13.786  0.3617E+00  0.1550E+01
 -13.776  0.3609E+00  0.1553E+01
 -13.766  0.3723E+00  0.1557E+01
 -13.756  0.3811E+00  0.1561E+01
 -13.746  0.3875E+00  0.1564E+01
 -13.736  0.3887E+00  0.1568E+01
 -13.726  0.3908E+00  0.1572E+01
 -13.716  0.3857E+00  0.1576E+01
 -13.706  0.3714E+00  0.1580E+01
 -13.696  0.3648E+00  0.1584E+01
 -13.686  0.3604E+00  0.1587E+01
 -13.676  0.3580E+00  0.1591E+01
 -13.666  0.3704E+00  0.1594E+01
 -13.656  0.3948E+00  0.1598E+01
 -13.646  0.4159E+00  0.1602E+01
 -13.636  0.4335E+00  0.1607E+01
 -13.626  0.4477E+00  0.1611E+01
 -13.616  0.4612E+00  0.1616E+01
 -13.606  0.4729E+00  0.1620E+01
 -13.596  0.4809E+00  0.1625E+01
 -13.586  0.4852E+00  0.1630E+01
 -13.576  0.4858E+00  0.1635E+01
 -13.566  0.4835E+00  0.1640E+01
 -13.556  0.4810E+00  0.1644E+01
 -13.546  0.4786E+00  0.1649E+01
 -13.536  0.4762E+00  0.1654E+01
 -13.526  0.4737E+00  0.1659E+01
 -13.516  0.4714E+00  0.1663E+01
 -13.506  0.4690E+00  0.1668E+01
 -13.496  0.4666E+00  0.1673E+01
 -13.486  0.4643E+00  0.1677E+01
 -13.476  0.4620E+00  0.1682E+01
 -13.466  0.4582E+00  0.1687E+01
 -13.456  0.4456E+00  0.1691E+01
 -13.446  0.4321E+00  0.1696E+01
 -13.436  0.4183E+00  0.1700E+01
 -13.426  0.4048E+00  0.1704E+01
 -13.416  0.3943E+00  0.1708E+01
 -13.406  0.3840E+00  0.1712E+01
 -13.396  0.3972E+00  0.1716E+01
 -13.386  0.4629E+00  0.1720E+01
 -13.376  0.5307E+00  0.1725E+01
 -13.366  0.5794E+00  0.1730E+01
 -13.356  0.6092E+00  0.1736E+01
 -13.346  0.6312E+00  0.1743E+01
 -13.336  0.7434E+00  0.1750E+01
 -13.326  0.7877E+00  0.1757E+01
 -13.316  0.7641E+00  0.1765E+01
 -13.306  0.6727E+00  0.1772E+01
 -13.296  0.5143E+00  0.1778E+01
 -13.286  0.3333E+00  0.1783E+01
 -13.276  0.3113E+00  0.1786E+01
 -13.266  0.3022E+00  0.1789E+01
 -13.256  0.2929E+00  0.1792E+01
 -13.246  0.2835E+00  0.1795E+01
 -13.236  0.2739E+00  0.1797E+01
 -13.226  0.2642E+00  0.1800E+01
 -13.216  0.2595E+00  0.1803E+01
 -13.206  0.2571E+00  0.1805E+01
 -13.196  0.2549E+00  0.1808E+01
 -13.186  0.2528E+00  0.1810E+01
 -13.176  0.2509E+00  0.1813E+01
 -13.166  0.2491E+00  0.1815E+01
 -13.156  0.2474E+00  0.1818E+01
 -13.146  0.2456E+00  0.1820E+01
 -13.136  0.2439E+00  0.1823E+01
 -13.126  0.2422E+00  0.1825E+01
 -13.116  0.2405E+00  0.1828E+01
 -13.106  0.2387E+00  0.1830E+01
 -13.096  0.2370E+00  0.1832E+01
 -13.086  0.2352E+00  0.1835E+01
 -13.076  0.2335E+00  0.1837E+01
 -13.066  0.2317E+00  0.1839E+01
 -13.056  0.2299E+00  0.1842E+01
 -13.046  0.2281E+00  0.1844E+01
 -13.036  0.2263E+00  0.1846E+01
 -13.026  0.2245E+00  0.1849E+01
 -13.016  0.2227E+00  0.1851E+01
 -13.006  0.2208E+00  0.1853E+01
 -12.996  0.2190E+00  0.1855E+01
 -12.986  0.2171E+00  0.1857E+01
 -12.976  0.2152E+00  0.1860E+01
 -12.966  0.2133E+00  0.1862E+01
 -12.956  0.2114E+00  0.1864E+01
 -12.946  0.2095E+00  0.1866E+01
 -12.936  0.2076E+00  0.1868E+01
 -12.926  0.2057E+00  0.1870E+01
 -12.916  0.2037E+00  0.1872E+01
 -12.906  0.2018E+00  0.1874E+01
 -12.896  0.1998E+00  0.1876E+01
 -12.886  0.1979E+00  0.1878E+01
 -12.876  0.1959E+00  0.1880E+01
 -12.866  0.1939E+00  0.1882E+01
 -12.856  0.1919E+00  0.1884E+01
 -12.846  0.1898E+00  0.1886E+01
 -12.836  0.1878E+00  0.1888E+01
 -12.826  0.1858E+00  0.1890E+01
 -12.816  0.1837E+00  0.1892E+01
 -12.806  0.1817E+00  0.1893E+01
 -12.796  0.1796E+00  0.1895E+01
 -12.786  0.1775E+00  0.1897E+01
 -12.776  0.1754E+00  0.1899E+01
 -12.766  0.1733E+00  0.1900E+01
 -12.756  0.1712E+00  0.1902E+01
 -12.746  0.1707E+00  0.1904E+01
 -12.736  0.1815E+00  0.1906E+01
 -12.726  0.1923E+00  0.1908E+01
 -12.716  0.2039E+00  0.1909E+01
 -12.706  0.2163E+00  0.1912E+01
 -12.696  0.2296E+00  0.1914E+01
 -12.686  0.2403E+00  0.1916E+01
 -12.676  0.2348E+00  0.1919E+01
 -12.666  0.2341E+00  0.1921E+01
 -12.656  0.2366E+00  0.1923E+01
 -12.646  0.2028E+00  0.1925E+01
 -12.636  0.2170E+00  0.1928E+01
 -12.626  0.2232E+00  0.1930E+01
 -12.616  0.2308E+00  0.1932E+01
 -12.606  0.2706E+00  0.1935E+01
 -12.596  0.2932E+00  0.1937E+01
 -12.586  0.2914E+00  0.1940E+01
 -12.576  0.2530E+00  0.1943E+01
 -12.566  0.2128E+00  0.1945E+01
 -12.556  0.1781E+00  0.1947E+01
 -12.546  0.1460E+00  0.1949E+01
 -12.536  0.1185E+00  0.1950E+01
 -12.526  0.1049E+00  0.1951E+01
 -12.516  0.9507E-01  0.1952E+01
 -12.506  0.8891E-01  0.1953E+01
 -12.496  0.8648E-01  0.1954E+01
 -12.486  0.8656E-01  0.1955E+01
 -12.476  0.8628E-01  0.1956E+01
 -12.466  0.8585E-01  0.1957E+01
 -12.456  0.8548E-01  0.1958E+01
 -12.446  0.8517E-01  0.1958E+01
 -12.436  0.8493E-01  0.1959E+01
 -12.426  0.8475E-01  0.1960E+01
 -12.416  0.8463E-01  0.1961E+01
 -12.406  0.8463E-01  0.1962E+01
 -12.396  0.8755E-01  0.1963E+01
 -12.386  0.9169E-01  0.1964E+01
 -12.376  0.9580E-01  0.1965E+01
 -12.366  0.1003E+00  0.1966E+01
 -12.356  0.1052E+00  0.1967E+01
 -12.346  0.1106E+00  0.1968E+01
 -12.336  0.1247E+00  0.1969E+01
 -12.326  0.1438E+00  0.1970E+01
 -12.316  0.1621E+00  0.1972E+01
 -12.306  0.1797E+00  0.1973E+01
 -12.296  0.1966E+00  0.1975E+01
 -12.286  0.2128E+00  0.1977E+01
 -12.276  0.2283E+00  0.1980E+01
 -12.266  0.2431E+00  0.1982E+01
 -12.256  0.2572E+00  0.1984E+01
 -12.246  0.2706E+00  0.1987E+01
 -12.236  0.2833E+00  0.1990E+01
 -12.226  0.2952E+00  0.1993E+01
 -12.216  0.3065E+00  0.1996E+01
 -12.206  0.3170E+00  0.1999E+01
 -12.196  0.3269E+00  0.2002E+01
 -12.186  0.3360E+00  0.2005E+01
 -12.176  0.3444E+00  0.2009E+01
 -12.166  0.3507E+00  0.2012E+01
 -12.156  0.3531E+00  0.2016E+01
 -12.146  0.3514E+00  0.2019E+01
 -12.136  0.3457E+00  0.2023E+01
 -12.126  0.3382E+00  0.2026E+01
 -12.116  0.3369E+00  0.2030E+01
 -12.106  0.3326E+00  0.2033E+01
 -12.096  0.3254E+00  0.2036E+01
 -12.086  0.3152E+00  0.2039E+01
 -12.076  0.3022E+00  0.2042E+01
 -12.066  0.2862E+00  0.2045E+01
 -12.056  0.2676E+00  0.2048E+01
 -12.046  0.2571E+00  0.2051E+01
 -12.036  0.2586E+00  0.2053E+01
 -12.026  0.2619E+00  0.2056E+01
 -12.016  0.2654E+00  0.2059E+01
 -12.006  0.2695E+00  0.2061E+01
 -11.996  0.2736E+00  0.2064E+01
 -11.986  0.2777E+00  0.2067E+01
 -11.976  0.2806E+00  0.2070E+01
 -11.966  0.2817E+00  0.2072E+01
 -11.956  0.2828E+00  0.2075E+01
 -11.946  0.2840E+00  0.2078E+01
 -11.936  0.2854E+00  0.2081E+01
 -11.926  0.2869E+00  0.2084E+01
 -11.916  0.2885E+00  0.2087E+01
 -11.906  0.2957E+00  0.2090E+01
 -11.896  0.3217E+00  0.2093E+01
 -11.886  0.3631E+00  0.2096E+01
 -11.876  0.4191E+00  0.2100E+01
 -11.866  0.4891E+00  0.2104E+01
 -11.856  0.1001E+01  0.2112E+01
 -11.846  0.9873E+00  0.2122E+01
 -11.836  0.5757E+00  0.2130E+01
 -11.826  0.5481E+00  0.2136E+01
 -11.816  0.4923E+00  0.2141E+01
 -11.806  0.4083E+00  0.2145E+01
 -11.796  0.3166E+00  0.2149E+01
 -11.786  0.2872E+00  0.2152E+01
 -11.776  0.2935E+00  0.2155E+01
 -11.766  0.3014E+00  0.2158E+01
 -11.756  0.3099E+00  0.2161E+01
 -11.746  0.3188E+00  0.2164E+01
 -11.736  0.3295E+00  0.2167E+01
 -11.726  0.3403E+00  0.2171E+01
 -11.716  0.3480E+00  0.2174E+01
 -11.706  0.3521E+00  0.2177E+01
 -11.696  0.3558E+00  0.2181E+01
 -11.686  0.3594E+00  0.2185E+01
 -11.676  0.3630E+00  0.2188E+01
 -11.666  0.3666E+00  0.2192E+01
 -11.656  0.3701E+00  0.2196E+01
 -11.646  0.3737E+00  0.2199E+01
 -11.636  0.3772E+00  0.2203E+01
 -11.626  0.3807E+00  0.2207E+01
 -11.616  0.3842E+00  0.2211E+01
 -11.606  0.3877E+00  0.2214E+01
 -11.596  0.3911E+00  0.2218E+01
 -11.586  0.3952E+00  0.2222E+01
 -11.576  0.3993E+00  0.2226E+01
 -11.566  0.4040E+00  0.2230E+01
 -11.556  0.4087E+00  0.2234E+01
 -11.546  0.4134E+00  0.2238E+01
 -11.536  0.4181E+00  0.2243E+01
 -11.526  0.4229E+00  0.2247E+01
 -11.516  0.4276E+00  0.2251E+01
 -11.506  0.4323E+00  0.2255E+01
 -11.496  0.4371E+00  0.2260E+01
 -11.486  0.4418E+00  0.2264E+01
 -11.476  0.4466E+00  0.2269E+01
 -11.466  0.4513E+00  0.2273E+01
 -11.456  0.4560E+00  0.2278E+01
 -11.446  0.4608E+00  0.2282E+01
 -11.436  0.4655E+00  0.2287E+01
 -11.426  0.4702E+00  0.2292E+01
 -11.416  0.4749E+00  0.2296E+01
 -11.406  0.4796E+00  0.2301E+01
 -11.396  0.4843E+00  0.2306E+01
 -11.386  0.4890E+00  0.2311E+01
 -11.376  0.4936E+00  0.2316E+01
 -11.366  0.4983E+00  0.2321E+01
 -11.356  0.5030E+00  0.2326E+01
 -11.346  0.5076E+00  0.2331E+01
 -11.336  0.5122E+00  0.2336E+01
 -11.326  0.5168E+00  0.2341E+01
 -11.316  0.5213E+00  0.2346E+01
 -11.306  0.5257E+00  0.2351E+01
 -11.296  0.5302E+00  0.2357E+01
 -11.286  0.5312E+00  0.2362E+01
 -11.276  0.5260E+00  0.2367E+01
 -11.266  0.5147E+00  0.2372E+01
 -11.256  0.4983E+00  0.2377E+01
 -11.246  0.4771E+00  0.2382E+01
 -11.236  0.4505E+00  0.2387E+01
 -11.226  0.4207E+00  0.2391E+01
 -11.216  0.3899E+00  0.2395E+01
 -11.206  0.3724E+00  0.2399E+01
 -11.196  0.3703E+00  0.2403E+01
 -11.186  0.3767E+00  0.2407E+01
 -11.176  0.3800E+00  0.2410E+01
 -11.166  0.3838E+00  0.2414E+01
 -11.156  0.3884E+00  0.2418E+01
 -11.146  0.3951E+00  0.2422E+01
 -11.136  0.4074E+00  0.2426E+01
 -11.126  0.3971E+00  0.2430E+01
 -11.116  0.3819E+00  0.2434E+01
 -11.106  0.3736E+00  0.2438E+01
 -11.096  0.3723E+00  0.2441E+01
 -11.086  0.3731E+00  0.2445E+01
 -11.076  0.3713E+00  0.2449E+01
 -11.066  0.3687E+00  0.2453E+01
 -11.056  0.3660E+00  0.2456E+01
 -11.046  0.3635E+00  0.2460E+01
 -11.036  0.3610E+00  0.2464E+01
 -11.026  0.3585E+00  0.2467E+01
 -11.016  0.3561E+00  0.2471E+01
 -11.006  0.3538E+00  0.2474E+01
 -10.996  0.3515E+00  0.2478E+01
 -10.986  0.3492E+00  0.2481E+01
 -10.976  0.3470E+00  0.2485E+01
 -10.966  0.3449E+00  0.2488E+01
 -10.956  0.3428E+00  0.2492E+01
 -10.946  0.3408E+00  0.2495E+01
 -10.936  0.3388E+00  0.2498E+01
 -10.926  0.3368E+00  0.2502E+01
 -10.916  0.3350E+00  0.2505E+01
 -10.906  0.3331E+00  0.2509E+01
 -10.896  0.3313E+00  0.2512E+01
 -10.886  0.3294E+00  0.2515E+01
 -10.876  0.3276E+00  0.2518E+01
 -10.866  0.3257E+00  0.2522E+01
 -10.856  0.3238E+00  0.2525E+01
 -10.846  0.3219E+00  0.2528E+01
 -10.836  0.3200E+00  0.2531E+01
 -10.826  0.3180E+00  0.2535E+01
 -10.816  0.3158E+00  0.2538E+01
 -10.806  0.3145E+00  0.2541E+01
 -10.796  0.3153E+00  0.2544E+01
 -10.786  0.3169E+00  0.2547E+01
 -10.776  0.3194E+00  0.2550E+01
 -10.766  0.3224E+00  0.2554E+01
 -10.756  0.3254E+00  0.2557E+01
 -10.746  0.3279E+00  0.2560E+01
 -10.736  0.3286E+00  0.2563E+01
 -10.726  0.3302E+00  0.2567E+01
 -10.716  0.3309E+00  0.2570E+01
 -10.706  0.3294E+00  0.2573E+01
 -10.696  0.3278E+00  0.2577E+01
 -10.686  0.3263E+00  0.2580E+01
 -10.676  0.3247E+00  0.2583E+01
 -10.666  0.3233E+00  0.2586E+01
 -10.656  0.3219E+00  0.2590E+01
 -10.646  0.3205E+00  0.2593E+01
 -10.636  0.3192E+00  0.2596E+01
 -10.626  0.3179E+00  0.2599E+01
 -10.616  0.3166E+00  0.2602E+01
 -10.606  0.3154E+00  0.2606E+01
 -10.596  0.3141E+00  0.2609E+01
 -10.586  0.3129E+00  0.2612E+01
 -10.576  0.3116E+00  0.2615E+01
 -10.566  0.3104E+00  0.2618E+01
 -10.556  0.3092E+00  0.2621E+01
 -10.546  0.3080E+00  0.2624E+01
 -10.536  0.3068E+00  0.2627E+01
 -10.526  0.3056E+00  0.2630E+01
 -10.516  0.3044E+00  0.2633E+01
 -10.506  0.3033E+00  0.2636E+01
 -10.496  0.3021E+00  0.2639E+01
 -10.486  0.3009E+00  0.2642E+01
 -10.476  0.3003E+00  0.2645E+01
 -10.466  0.3000E+00  0.2648E+01
 -10.456  0.2998E+00  0.2651E+01
 -10.446  0.2991E+00  0.2654E+01
 -10.436  0.2980E+00  0.2657E+01
 -10.426  0.2969E+00  0.2660E+01
 -10.416  0.2958E+00  0.2663E+01
 -10.406  0.2948E+00  0.2666E+01
 -10.396  0.2937E+00  0.2669E+01
 -10.386  0.2927E+00  0.2672E+01
 -10.376  0.2916E+00  0.2675E+01
 -10.366  0.2906E+00  0.2678E+01
 -10.356  0.2896E+00  0.2681E+01
 -10.346  0.2886E+00  0.2684E+01
 -10.336  0.2876E+00  0.2687E+01
 -10.326  0.2866E+00  0.2690E+01
 -10.316  0.2856E+00  0.2692E+01
 -10.306  0.2846E+00  0.2695E+01
 -10.296  0.2836E+00  0.2698E+01
 -10.286  0.2825E+00  0.2701E+01
 -10.276  0.2818E+00  0.2704E+01
 -10.266  0.2823E+00  0.2707E+01
 -10.256  0.2834E+00  0.2709E+01
 -10.246  0.2852E+00  0.2712E+01
 -10.236  0.2858E+00  0.2715E+01
 -10.226  0.2860E+00  0.2718E+01
 -10.216  0.2850E+00  0.2721E+01
 -10.206  0.2841E+00  0.2724E+01
 -10.196  0.2832E+00  0.2727E+01
 -10.186  0.2823E+00  0.2729E+01
 -10.176  0.2814E+00  0.2732E+01
 -10.166  0.2805E+00  0.2735E+01
 -10.156  0.2796E+00  0.2738E+01
 -10.146  0.2787E+00  0.2741E+01
 -10.136  0.2782E+00  0.2743E+01
 -10.126  0.2778E+00  0.2746E+01
 -10.116  0.2774E+00  0.2749E+01
 -10.106  0.2770E+00  0.2752E+01
 -10.096  0.2774E+00  0.2754E+01
 -10.086  0.2777E+00  0.2757E+01
 -10.076  0.2783E+00  0.2760E+01
 -10.066  0.2802E+00  0.2763E+01
 -10.056  0.2821E+00  0.2766E+01
 -10.046  0.2821E+00  0.2768E+01
 -10.036  0.2817E+00  0.2771E+01
 -10.026  0.2813E+00  0.2774E+01
 -10.016  0.2808E+00  0.2777E+01
 -10.006  0.2804E+00  0.2780E+01
  -9.996  0.2799E+00  0.2783E+01
  -9.986  0.2794E+00  0.2785E+01
  -9.976  0.2789E+00  0.2788E+01
  -9.966  0.2784E+00  0.2791E+01
  -9.956  0.2779E+00  0.2794E+01
  -9.946  0.2773E+00  0.2796E+01
  -9.936  0.2768E+00  0.2799E+01
  -9.926  0.2763E+00  0.2802E+01
  -9.916  0.2758E+00  0.2805E+01
  -9.906  0.2753E+00  0.2808E+01
  -9.896  0.2748E+00  0.2810E+01
  -9.886  0.2743E+00  0.2813E+01
  -9.876  0.2738E+00  0.2816E+01
  -9.866  0.2733E+00  0.2818E+01
  -9.856  0.2729E+00  0.2821E+01
  -9.846  0.2724E+00  0.2824E+01
  -9.836  0.2721E+00  0.2827E+01
  -9.826  0.2718E+00  0.2829E+01
  -9.816  0.2715E+00  0.2832E+01
  -9.806  0.2714E+00  0.2835E+01
  -9.796  0.2713E+00  0.2838E+01
  -9.786  0.2720E+00  0.2840E+01
  -9.776  0.2742E+00  0.2843E+01
  -9.766  0.2776E+00  0.2846E+01
  -9.756  0.2809E+00  0.2849E+01
  -9.746  0.2841E+00  0.2851E+01
  -9.736  0.2873E+00  0.2854E+01
  -9.726  0.2905E+00  0.2857E+01
  -9.716  0.2936E+00  0.2860E+01
  -9.706  0.2966E+00  0.2863E+01
  -9.696  0.2996E+00  0.2866E+01
  -9.686  0.3025E+00  0.2869E+01
  -9.676  0.3054E+00  0.2872E+01
  -9.666  0.3082E+00  0.2875E+01
  -9.656  0.3109E+00  0.2878E+01
  -9.646  0.3137E+00  0.2881E+01
  -9.636  0.3163E+00  0.2884E+01
  -9.626  0.3189E+00  0.2888E+01
  -9.616  0.3215E+00  0.2891E+01
  -9.606  0.3239E+00  0.2894E+01
  -9.596  0.3264E+00  0.2897E+01
  -9.586  0.3287E+00  0.2901E+01
  -9.576  0.3318E+00  0.2904E+01
  -9.566  0.3354E+00  0.2907E+01
  -9.556  0.3374E+00  0.2911E+01
  -9.546  0.3396E+00  0.2914E+01
  -9.536  0.3417E+00  0.2917E+01
  -9.526  0.3438E+00  0.2921E+01
  -9.516  0.3458E+00  0.2924E+01
  -9.506  0.3478E+00  0.2928E+01
  -9.496  0.3497E+00  0.2931E+01
  -9.486  0.3515E+00  0.2935E+01
  -9.476  0.3533E+00  0.2938E+01
  -9.466  0.3551E+00  0.2942E+01
  -9.456  0.3568E+00  0.2945E+01
  -9.446  0.3584E+00  0.2949E+01
  -9.436  0.3600E+00  0.2952E+01
  -9.426  0.3615E+00  0.2956E+01
  -9.416  0.3630E+00  0.2960E+01
  -9.406  0.3644E+00  0.2963E+01
  -9.396  0.3658E+00  0.2967E+01
  -9.386  0.3671E+00  0.2971E+01
  -9.376  0.3683E+00  0.2974E+01
  -9.366  0.3695E+00  0.2978E+01
  -9.356  0.3706E+00  0.2982E+01
  -9.346  0.3717E+00  0.2985E+01
  -9.336  0.3736E+00  0.2989E+01
  -9.326  0.3767E+00  0.2993E+01
  -9.316  0.3798E+00  0.2997E+01
  -9.306  0.3828E+00  0.3001E+01
  -9.296  0.3851E+00  0.3004E+01
  -9.286  0.3864E+00  0.3008E+01
  -9.276  0.3827E+00  0.3012E+01
  -9.266  0.3797E+00  0.3016E+01
  -9.256  0.3770E+00  0.3020E+01
  -9.246  0.3750E+00  0.3023E+01
  -9.236  0.3735E+00  0.3027E+01
  -9.226  0.3733E+00  0.3031E+01
  -9.216  0.3733E+00  0.3035E+01
  -9.206  0.3750E+00  0.3038E+01
  -9.196  0.3781E+00  0.3042E+01
  -9.186  0.3810E+00  0.3046E+01
  -9.176  0.3819E+00  0.3050E+01
  -9.166  0.3777E+00  0.3054E+01
  -9.156  0.3810E+00  0.3057E+01
  -9.146  0.3802E+00  0.3061E+01
  -9.136  0.3732E+00  0.3065E+01
  -9.126  0.3738E+00  0.3069E+01
  -9.116  0.3717E+00  0.3072E+01
  -9.106  0.3711E+00  0.3076E+01
  -9.096  0.3712E+00  0.3080E+01
  -9.086  0.3712E+00  0.3084E+01
  -9.076  0.3713E+00  0.3087E+01
  -9.066  0.3713E+00  0.3091E+01
  -9.056  0.3713E+00  0.3095E+01
  -9.046  0.3714E+00  0.3098E+01
  -9.036  0.3715E+00  0.3102E+01
  -9.026  0.3715E+00  0.3106E+01
  -9.016  0.3716E+00  0.3110E+01
  -9.006  0.3716E+00  0.3113E+01
  -8.996  0.3717E+00  0.3117E+01
  -8.986  0.3717E+00  0.3121E+01
  -8.976  0.3718E+00  0.3124E+01
  -8.966  0.3719E+00  0.3128E+01
  -8.956  0.3719E+00  0.3132E+01
  -8.946  0.3720E+00  0.3136E+01
  -8.936  0.3721E+00  0.3139E+01
  -8.926  0.3722E+00  0.3143E+01
  -8.916  0.3722E+00  0.3147E+01
  -8.906  0.3723E+00  0.3150E+01
  -8.896  0.3724E+00  0.3154E+01
  -8.886  0.3725E+00  0.3158E+01
  -8.876  0.3726E+00  0.3162E+01
  -8.866  0.3727E+00  0.3165E+01
  -8.856  0.3728E+00  0.3169E+01
  -8.846  0.3729E+00  0.3173E+01
  -8.836  0.3729E+00  0.3177E+01
  -8.826  0.3730E+00  0.3180E+01
  -8.816  0.3731E+00  0.3184E+01
  -8.806  0.3732E+00  0.3188E+01
  -8.796  0.3733E+00  0.3191E+01
  -8.786  0.3735E+00  0.3195E+01
  -8.776  0.3736E+00  0.3199E+01
  -8.766  0.3737E+00  0.3203E+01
  -8.756  0.3739E+00  0.3206E+01
  -8.746  0.3737E+00  0.3210E+01
  -8.736  0.3736E+00  0.3214E+01
  -8.726  0.3737E+00  0.3218E+01
  -8.716  0.3739E+00  0.3221E+01
  -8.706  0.3740E+00  0.3225E+01
  -8.696  0.3741E+00  0.3229E+01
  -8.686  0.3742E+00  0.3233E+01
  -8.676  0.3743E+00  0.3236E+01
  -8.666  0.3744E+00  0.3240E+01
  -8.656  0.3745E+00  0.3244E+01
  -8.646  0.3747E+00  0.3248E+01
  -8.636  0.3758E+00  0.3251E+01
  -8.626  0.3779E+00  0.3255E+01
  -8.616  0.3791E+00  0.3259E+01
  -8.606  0.3783E+00  0.3263E+01
  -8.596  0.3766E+00  0.3266E+01
  -8.586  0.3751E+00  0.3270E+01
  -8.576  0.3739E+00  0.3274E+01
  -8.566  0.3740E+00  0.3278E+01
  -8.556  0.3743E+00  0.3281E+01
  -8.546  0.3747E+00  0.3285E+01
  -8.536  0.3751E+00  0.3289E+01
  -8.526  0.3754E+00  0.3293E+01
  -8.516  0.3758E+00  0.3296E+01
  -8.506  0.3761E+00  0.3300E+01
  -8.496  0.3765E+00  0.3304E+01
  -8.486  0.3768E+00  0.3308E+01
  -8.476  0.3772E+00  0.3311E+01
  -8.466  0.3775E+00  0.3315E+01
  -8.456  0.3778E+00  0.3319E+01
  -8.446  0.3782E+00  0.3323E+01
  -8.436  0.3785E+00  0.3327E+01
  -8.426  0.3788E+00  0.3330E+01
  -8.416  0.3791E+00  0.3334E+01
  -8.406  0.3794E+00  0.3338E+01
  -8.396  0.3798E+00  0.3342E+01
  -8.386  0.3801E+00  0.3346E+01
  -8.376  0.3804E+00  0.3349E+01
  -8.366  0.3806E+00  0.3353E+01
  -8.356  0.3809E+00  0.3357E+01
  -8.346  0.3812E+00  0.3361E+01
  -8.336  0.3815E+00  0.3365E+01
  -8.326  0.3818E+00  0.3368E+01
  -8.316  0.3820E+00  0.3372E+01
  -8.306  0.3823E+00  0.3376E+01
  -8.296  0.3826E+00  0.3380E+01
  -8.286  0.3828E+00  0.3384E+01
  -8.276  0.3831E+00  0.3387E+01
  -8.266  0.3833E+00  0.3391E+01
  -8.256  0.3836E+00  0.3395E+01
  -8.246  0.3838E+00  0.3399E+01
  -8.236  0.3840E+00  0.3403E+01
  -8.226  0.3843E+00  0.3407E+01
  -8.216  0.3845E+00  0.3411E+01
  -8.206  0.3847E+00  0.3414E+01
  -8.196  0.3849E+00  0.3418E+01
  -8.186  0.3852E+00  0.3422E+01
  -8.176  0.3854E+00  0.3426E+01
  -8.166  0.3856E+00  0.3430E+01
  -8.156  0.3858E+00  0.3434E+01
  -8.146  0.3860E+00  0.3437E+01
  -8.136  0.3862E+00  0.3441E+01
  -8.126  0.3863E+00  0.3445E+01
  -8.116  0.3865E+00  0.3449E+01
  -8.106  0.3867E+00  0.3453E+01
  -8.096  0.3869E+00  0.3457E+01
  -8.086  0.3870E+00  0.3461E+01
  -8.076  0.3872E+00  0.3465E+01
  -8.066  0.3874E+00  0.3468E+01
  -8.056  0.3875E+00  0.3472E+01
  -8.046  0.3877E+00  0.3476E+01
  -8.036  0.3888E+00  0.3480E+01
  -8.026  0.3897E+00  0.3484E+01
  -8.016  0.3904E+00  0.3488E+01
  -8.006  0.3910E+00  0.3492E+01
  -7.996  0.3845E+00  0.3496E+01
  -7.986  0.3783E+00  0.3499E+01
  -7.976  0.3801E+00  0.3503E+01
  -7.966  0.3830E+00  0.3507E+01
  -7.956  0.3860E+00  0.3511E+01
  -7.946  0.3888E+00  0.3515E+01
  -7.936  0.3914E+00  0.3519E+01
  -7.926  0.3938E+00  0.3523E+01
  -7.916  0.3959E+00  0.3527E+01
  -7.906  0.3978E+00  0.3531E+01
  -7.896  0.3994E+00  0.3534E+01
  -7.886  0.3999E+00  0.3538E+01
  -7.876  0.3992E+00  0.3542E+01
  -7.866  0.3992E+00  0.3546E+01
  -7.856  0.3946E+00  0.3550E+01
  -7.846  0.3928E+00  0.3554E+01
  -7.836  0.3931E+00  0.3558E+01
  -7.826  0.3926E+00  0.3562E+01
  -7.816  0.3926E+00  0.3566E+01
  -7.806  0.3929E+00  0.3570E+01
  -7.796  0.3937E+00  0.3574E+01
  -7.786  0.3945E+00  0.3578E+01
  -7.776  0.3953E+00  0.3582E+01
  -7.766  0.3960E+00  0.3586E+01
  -7.756  0.3967E+00  0.3590E+01
  -7.746  0.3974E+00  0.3594E+01
  -7.736  0.3981E+00  0.3598E+01
  -7.726  0.3988E+00  0.3602E+01
  -7.716  0.3995E+00  0.3606E+01
  -7.706  0.4002E+00  0.3610E+01
  -7.696  0.4009E+00  0.3614E+01
  -7.686  0.4017E+00  0.3618E+01
  -7.676  0.4024E+00  0.3622E+01
  -7.666  0.4031E+00  0.3626E+01
  -7.656  0.4038E+00  0.3630E+01
  -7.646  0.4045E+00  0.3634E+01
  -7.636  0.4052E+00  0.3638E+01
  -7.626  0.4059E+00  0.3642E+01
  -7.616  0.4066E+00  0.3646E+01
  -7.606  0.4073E+00  0.3650E+01
  -7.596  0.4080E+00  0.3654E+01
  -7.586  0.4087E+00  0.3658E+01
  -7.576  0.4094E+00  0.3662E+01
  -7.566  0.4101E+00  0.3666E+01
  -7.556  0.4108E+00  0.3671E+01
  -7.546  0.4115E+00  0.3675E+01
  -7.536  0.4118E+00  0.3679E+01
  -7.526  0.4126E+00  0.3683E+01
  -7.516  0.4141E+00  0.3687E+01
  -7.506  0.4171E+00  0.3691E+01
  -7.496  0.4208E+00  0.3695E+01
  -7.486  0.4251E+00  0.3700E+01
  -7.476  0.4300E+00  0.3704E+01
  -7.466  0.4297E+00  0.3708E+01
  -7.456  0.4279E+00  0.3713E+01
  -7.446  0.4246E+00  0.3717E+01
  -7.436  0.4217E+00  0.3721E+01
  -7.426  0.4215E+00  0.3725E+01
  -7.416  0.4220E+00  0.3729E+01
  -7.406  0.4225E+00  0.3734E+01
  -7.396  0.4230E+00  0.3738E+01
  -7.386  0.4236E+00  0.3742E+01
  -7.376  0.4241E+00  0.3746E+01
  -7.366  0.4246E+00  0.3751E+01
  -7.356  0.4252E+00  0.3755E+01
  -7.346  0.4257E+00  0.3759E+01
  -7.336  0.4263E+00  0.3763E+01
  -7.326  0.4268E+00  0.3768E+01
  -7.316  0.4274E+00  0.3772E+01
  -7.306  0.4280E+00  0.3776E+01
  -7.296  0.4285E+00  0.3780E+01
  -7.286  0.4291E+00  0.3785E+01
  -7.276  0.4296E+00  0.3789E+01
  -7.266  0.4302E+00  0.3793E+01
  -7.256  0.4308E+00  0.3798E+01
  -7.246  0.4314E+00  0.3802E+01
  -7.236  0.4319E+00  0.3806E+01
  -7.226  0.4325E+00  0.3811E+01
  -7.216  0.4331E+00  0.3815E+01
  -7.206  0.4337E+00  0.3819E+01
  -7.196  0.4343E+00  0.3824E+01
  -7.186  0.4349E+00  0.3828E+01
  -7.176  0.4355E+00  0.3832E+01
  -7.166  0.4361E+00  0.3837E+01
  -7.156  0.4367E+00  0.3841E+01
  -7.146  0.4373E+00  0.3845E+01
  -7.136  0.4379E+00  0.3850E+01
  -7.126  0.4385E+00  0.3854E+01
  -7.116  0.4391E+00  0.3859E+01
  -7.106  0.4397E+00  0.3863E+01
  -7.096  0.4403E+00  0.3867E+01
  -7.086  0.4410E+00  0.3872E+01
  -7.076  0.4416E+00  0.3876E+01
  -7.066  0.4422E+00  0.3881E+01
  -7.056  0.4428E+00  0.3885E+01
  -7.046  0.4435E+00  0.3889E+01
  -7.036  0.4447E+00  0.3894E+01
  -7.026  0.4460E+00  0.3898E+01
  -7.016  0.4466E+00  0.3903E+01
  -7.006  0.4471E+00  0.3907E+01
  -6.996  0.4424E+00  0.3912E+01
  -6.986  0.4302E+00  0.3916E+01
  -6.976  0.4284E+00  0.3920E+01
  -6.966  0.4287E+00  0.3925E+01
  -6.956  0.4296E+00  0.3929E+01
  -6.946  0.4308E+00  0.3933E+01
  -6.936  0.4329E+00  0.3938E+01
  -6.926  0.4352E+00  0.3942E+01
  -6.916  0.4361E+00  0.3946E+01
  -6.906  0.4370E+00  0.3951E+01
  -6.896  0.4378E+00  0.3955E+01
  -6.886  0.4386E+00  0.3959E+01
  -6.876  0.4394E+00  0.3964E+01
  -6.866  0.4402E+00  0.3968E+01
  -6.856  0.4411E+00  0.3973E+01
  -6.846  0.4419E+00  0.3977E+01
  -6.836  0.4427E+00  0.3981E+01
  -6.826  0.4435E+00  0.3986E+01
  -6.816  0.4443E+00  0.3990E+01
  -6.806  0.4451E+00  0.3995E+01
  -6.796  0.4459E+00  0.3999E+01
  -6.786  0.4429E+00  0.4004E+01
  -6.776  0.4307E+00  0.4008E+01
  -6.766  0.4549E+00  0.4012E+01
  -6.756  0.4787E+00  0.4017E+01
  -6.746  0.5316E+00  0.4022E+01
  -6.736  0.5796E+00  0.4028E+01
  -6.726  0.6227E+00  0.4034E+01
  -6.716  0.6614E+00  0.4040E+01
  -6.706  0.6947E+00  0.4047E+01
  -6.696  0.7226E+00  0.4054E+01
  -6.686  0.7452E+00  0.4061E+01
  -6.676  0.7624E+00  0.4069E+01
  -6.666  0.7743E+00  0.4076E+01
  -6.656  0.7810E+00  0.4084E+01
  -6.646  0.7955E+00  0.4092E+01
  -6.636  0.7250E+00  0.4100E+01
  -6.626  0.6986E+00  0.4107E+01
  -6.616  0.7023E+00  0.4114E+01
  -6.606  0.7063E+00  0.4121E+01
  -6.596  0.7102E+00  0.4128E+01
  -6.586  0.7142E+00  0.4135E+01
  -6.576  0.7183E+00  0.4142E+01
  -6.566  0.7219E+00  0.4150E+01
  -6.556  0.7236E+00  0.4157E+01
  -6.546  0.7243E+00  0.4164E+01
  -6.536  0.7262E+00  0.4171E+01
  -6.526  0.7292E+00  0.4179E+01
  -6.516  0.7321E+00  0.4186E+01
  -6.506  0.7357E+00  0.4193E+01
  -6.496  0.7400E+00  0.4201E+01
  -6.486  0.7441E+00  0.4208E+01
  -6.476  0.7483E+00  0.4215E+01
  -6.466  0.7524E+00  0.4223E+01
  -6.456  0.7565E+00  0.4230E+01
  -6.446  0.7607E+00  0.4238E+01
  -6.436  0.7648E+00  0.4246E+01
  -6.426  0.7689E+00  0.4253E+01
  -6.416  0.7730E+00  0.4261E+01
  -6.406  0.7771E+00  0.4269E+01
  -6.396  0.7809E+00  0.4277E+01
  -6.386  0.7835E+00  0.4284E+01
  -6.376  0.7643E+00  0.4292E+01
  -6.366  0.7430E+00  0.4300E+01
  -6.356  0.7414E+00  0.4307E+01
  -6.346  0.7399E+00  0.4315E+01
  -6.336  0.7402E+00  0.4322E+01
  -6.326  0.7410E+00  0.4329E+01
  -6.316  0.7420E+00  0.4337E+01
  -6.306  0.7431E+00  0.4344E+01
  -6.296  0.7445E+00  0.4352E+01
  -6.286  0.7462E+00  0.4359E+01
  -6.276  0.7487E+00  0.4367E+01
  -6.266  0.7517E+00  0.4374E+01
  -6.256  0.7495E+00  0.4382E+01
  -6.246  0.7497E+00  0.4389E+01
  -6.236  0.7499E+00  0.4397E+01
  -6.226  0.7501E+00  0.4404E+01
  -6.216  0.7511E+00  0.4412E+01
  -6.206  0.7555E+00  0.4419E+01
  -6.196  0.7598E+00  0.4427E+01
  -6.186  0.7641E+00  0.4434E+01
  -6.176  0.7684E+00  0.4442E+01
  -6.166  0.7727E+00  0.4450E+01
  -6.156  0.7771E+00  0.4457E+01
  -6.146  0.7814E+00  0.4465E+01
  -6.136  0.7859E+00  0.4473E+01
  -6.126  0.7903E+00  0.4481E+01
  -6.116  0.7919E+00  0.4489E+01
  -6.106  0.7900E+00  0.4497E+01
  -6.096  0.7877E+00  0.4505E+01
  -6.086  0.7858E+00  0.4512E+01
  -6.076  0.7851E+00  0.4520E+01
  -6.066  0.7882E+00  0.4528E+01
  -6.056  0.7959E+00  0.4536E+01
  -6.046  0.8083E+00  0.4544E+01
  -6.036  0.8219E+00  0.4552E+01
  -6.026  0.8350E+00  0.4561E+01
  -6.016  0.8475E+00  0.4569E+01
  -6.006  0.8595E+00  0.4578E+01
  -5.996  0.8711E+00  0.4586E+01
  -5.986  0.8824E+00  0.4595E+01
  -5.976  0.8935E+00  0.4604E+01
  -5.966  0.9053E+00  0.4613E+01
  -5.956  0.9177E+00  0.4622E+01
  -5.946  0.9319E+00  0.4631E+01
  -5.936  0.9481E+00  0.4641E+01
  -5.926  0.9665E+00  0.4650E+01
  -5.916  0.9870E+00  0.4660E+01
  -5.906  0.1009E+01  0.4670E+01
  -5.896  0.1033E+01  0.4680E+01
  -5.886  0.1056E+01  0.4691E+01
  -5.876  0.1058E+01  0.4701E+01
  -5.866  0.1054E+01  0.4712E+01
  -5.856  0.1149E+01  0.4723E+01
  -5.846  0.1184E+01  0.4734E+01
  -5.836  0.1214E+01  0.4746E+01
  -5.826  0.1250E+01  0.4759E+01
  -5.816  0.1277E+01  0.4771E+01
  -5.806  0.1285E+01  0.4784E+01
  -5.796  0.1290E+01  0.4797E+01
  -5.786  0.1290E+01  0.4810E+01
  -5.776  0.1275E+01  0.4823E+01
  -5.766  0.1259E+01  0.4835E+01
  -5.756  0.1244E+01  0.4848E+01
  -5.746  0.1229E+01  0.4860E+01
  -5.736  0.1214E+01  0.4872E+01
  -5.726  0.1206E+01  0.4885E+01
  -5.716  0.1197E+01  0.4897E+01
  -5.706  0.1187E+01  0.4909E+01
  -5.696  0.1174E+01  0.4920E+01
  -5.686  0.1158E+01  0.4932E+01
  -5.676  0.1139E+01  0.4943E+01
  -5.666  0.1118E+01  0.4955E+01
  -5.656  0.1096E+01  0.4966E+01
  -5.646  0.1072E+01  0.4977E+01
  -5.636  0.1048E+01  0.4987E+01
  -5.626  0.1022E+01  0.4998E+01
  -5.616  0.9947E+00  0.5008E+01
  -5.606  0.9666E+00  0.5018E+01
  -5.596  0.9373E+00  0.5027E+01
  -5.586  0.9083E+00  0.5036E+01
  -5.576  0.9105E+00  0.5045E+01
  -5.566  0.9173E+00  0.5054E+01
  -5.556  0.9274E+00  0.5064E+01
  -5.546  0.9392E+00  0.5073E+01
  -5.536  0.9536E+00  0.5083E+01
  -5.526  0.8534E+00  0.5092E+01
  -5.516  0.7652E+00  0.5100E+01
  -5.506  0.7406E+00  0.5107E+01
  -5.496  0.7150E+00  0.5114E+01
  -5.486  0.6893E+00  0.5121E+01
  -5.476  0.6678E+00  0.5128E+01
  -5.466  0.6634E+00  0.5135E+01
  -5.456  0.7013E+00  0.5142E+01
  -5.446  0.7773E+00  0.5149E+01
  -5.436  0.7512E+00  0.5157E+01
  -5.426  0.7268E+00  0.5164E+01
  -5.416  0.7079E+00  0.5171E+01
  -5.406  0.6874E+00  0.5178E+01
  -5.396  0.6677E+00  0.5185E+01
  -5.386  0.6556E+00  0.5192E+01
  -5.376  0.6749E+00  0.5198E+01
  -5.366  0.6957E+00  0.5205E+01
  -5.356  0.7177E+00  0.5212E+01
  -5.346  0.7411E+00  0.5219E+01
  -5.336  0.7676E+00  0.5227E+01
  -5.326  0.8137E+00  0.5235E+01
  -5.316  0.8721E+00  0.5243E+01
  -5.306  0.9392E+00  0.5252E+01
  -5.296  0.9735E+00  0.5262E+01
  -5.286  0.1004E+01  0.5272E+01
  -5.276  0.9877E+00  0.5282E+01
  -5.266  0.9842E+00  0.5292E+01
  -5.256  0.9999E+00  0.5302E+01
  -5.246  0.1027E+01  0.5312E+01
  -5.236  0.1054E+01  0.5322E+01
  -5.226  0.1078E+01  0.5333E+01
  -5.216  0.1099E+01  0.5344E+01
  -5.206  0.1118E+01  0.5355E+01
  -5.196  0.1135E+01  0.5366E+01
  -5.186  0.1155E+01  0.5377E+01
  -5.176  0.1175E+01  0.5389E+01
  -5.166  0.1177E+01  0.5401E+01
  -5.156  0.1166E+01  0.5413E+01
  -5.146  0.1161E+01  0.5424E+01
  -5.136  0.1160E+01  0.5436E+01
  -5.126  0.1158E+01  0.5447E+01
  -5.116  0.1149E+01  0.5459E+01
  -5.106  0.1128E+01  0.5470E+01
  -5.096  0.1098E+01  0.5481E+01
  -5.086  0.1068E+01  0.5492E+01
  -5.076  0.1038E+01  0.5503E+01
  -5.066  0.1008E+01  0.5513E+01
  -5.056  0.9779E+00  0.5523E+01
  -5.046  0.9476E+00  0.5533E+01
  -5.036  0.9180E+00  0.5542E+01
  -5.026  0.8897E+00  0.5551E+01
  -5.016  0.8628E+00  0.5560E+01
  -5.006  0.8372E+00  0.5568E+01
  -4.996  0.8129E+00  0.5576E+01
  -4.986  0.7888E+00  0.5584E+01
  -4.976  0.7756E+00  0.5592E+01
  -4.966  0.7701E+00  0.5600E+01
  -4.956  0.7647E+00  0.5608E+01
  -4.946  0.7527E+00  0.5615E+01
  -4.936  0.7275E+00  0.5623E+01
  -4.926  0.6966E+00  0.5630E+01
  -4.916  0.7101E+00  0.5637E+01
  -4.906  0.7136E+00  0.5644E+01
  -4.896  0.7018E+00  0.5651E+01
  -4.886  0.8126E+00  0.5658E+01
  -4.876  0.8772E+00  0.5667E+01
  -4.866  0.8164E+00  0.5675E+01
  -4.856  0.7857E+00  0.5683E+01
  -4.846  0.7835E+00  0.5691E+01
  -4.836  0.7734E+00  0.5699E+01
  -4.826  0.7568E+00  0.5707E+01
  -4.816  0.7335E+00  0.5714E+01
  -4.806  0.7025E+00  0.5721E+01
  -4.796  0.6636E+00  0.5728E+01
  -4.786  0.6169E+00  0.5735E+01
  -4.776  0.5630E+00  0.5741E+01
  -4.766  0.5056E+00  0.5746E+01
  -4.756  0.4407E+00  0.5751E+01
  -4.746  0.3680E+00  0.5755E+01
  -4.736  0.2876E+00  0.5758E+01
  -4.726  0.2022E+00  0.5760E+01
  -4.716  0.1782E+00  0.5762E+01
  -4.706  0.1666E+00  0.5764E+01
  -4.696  0.1584E+00  0.5766E+01
  -4.686  0.1534E+00  0.5767E+01
  -4.676  0.1510E+00  0.5769E+01
  -4.666  0.1504E+00  0.5770E+01
  -4.656  0.1513E+00  0.5772E+01
  -4.646  0.1529E+00  0.5773E+01
  -4.636  0.1557E+00  0.5775E+01
  -4.626  0.1614E+00  0.5776E+01
  -4.616  0.2230E+00  0.5778E+01
  -4.606  0.2765E+00  0.5781E+01
  -4.596  0.3295E+00  0.5784E+01
  -4.586  0.4276E+00  0.5788E+01
  -4.576  0.5902E+00  0.5793E+01
  -4.566  0.6381E+00  0.5799E+01
  -4.556  0.6439E+00  0.5805E+01
  -4.546  0.6449E+00  0.5812E+01
  -4.536  0.6327E+00  0.5818E+01
  -4.526  0.6421E+00  0.5824E+01
  -4.516  0.6776E+00  0.5831E+01
  -4.506  0.7128E+00  0.5838E+01
  -4.496  0.6885E+00  0.5845E+01
  -4.486  0.6755E+00  0.5852E+01
  -4.476  0.6700E+00  0.5859E+01
  -4.466  0.6542E+00  0.5865E+01
  -4.456  0.7503E+00  0.5872E+01
  -4.446  0.7905E+00  0.5880E+01
  -4.436  0.7975E+00  0.5888E+01
  -4.426  0.8136E+00  0.5896E+01
  -4.416  0.8448E+00  0.5904E+01
  -4.406  0.8990E+00  0.5913E+01
  -4.396  0.9133E+00  0.5922E+01
  -4.386  0.9082E+00  0.5931E+01
  -4.376  0.9157E+00  0.5940E+01
  -4.366  0.1085E+01  0.5950E+01
  -4.356  0.3774E+01  0.5968E+01
  -4.346  0.1435E+01  0.5998E+01
  -4.336  0.1180E+01  0.6011E+01
  -4.326  0.1021E+01  0.6022E+01
  -4.316  0.9539E+00  0.6032E+01
  -4.306  0.9298E+00  0.6041E+01
  -4.296  0.9024E+00  0.6050E+01
  -4.286  0.8680E+00  0.6059E+01
  -4.276  0.8252E+00  0.6068E+01
  -4.266  0.7741E+00  0.6076E+01
  -4.256  0.7340E+00  0.6083E+01
  -4.246  0.7254E+00  0.6091E+01
  -4.236  0.7154E+00  0.6098E+01
  -4.226  0.7173E+00  0.6105E+01
  -4.216  0.7267E+00  0.6112E+01
  -4.206  0.7306E+00  0.6119E+01
  -4.196  0.7248E+00  0.6127E+01
  -4.186  0.7191E+00  0.6134E+01
  -4.176  0.7134E+00  0.6141E+01
  -4.166  0.7078E+00  0.6148E+01
  -4.156  0.7023E+00  0.6155E+01
  -4.146  0.6969E+00  0.6162E+01
  -4.136  0.6915E+00  0.6169E+01
  -4.126  0.6863E+00  0.6176E+01
  -4.116  0.6811E+00  0.6183E+01
  -4.106  0.6760E+00  0.6190E+01
  -4.096  0.6710E+00  0.6196E+01
  -4.086  0.6661E+00  0.6203E+01
  -4.076  0.6612E+00  0.6210E+01
  -4.066  0.6565E+00  0.6216E+01
  -4.056  0.6518E+00  0.6223E+01
  -4.046  0.6472E+00  0.6229E+01
  -4.036  0.6427E+00  0.6236E+01
  -4.026  0.6382E+00  0.6242E+01
  -4.016  0.6339E+00  0.6249E+01
  -4.006  0.6296E+00  0.6255E+01
  -3.996  0.6254E+00  0.6261E+01
  -3.986  0.6213E+00  0.6267E+01
  -3.976  0.6173E+00  0.6274E+01
  -3.966  0.6133E+00  0.6280E+01
  -3.956  0.6095E+00  0.6286E+01
  -3.946  0.6057E+00  0.6292E+01
  -3.936  0.6020E+00  0.6298E+01
  -3.926  0.5984E+00  0.6304E+01
  -3.916  0.5949E+00  0.6310E+01
  -3.906  0.5914E+00  0.6316E+01
  -3.896  0.5880E+00  0.6322E+01
  -3.886  0.5848E+00  0.6328E+01
  -3.876  0.5816E+00  0.6333E+01
  -3.866  0.5784E+00  0.6339E+01
  -3.856  0.5754E+00  0.6345E+01
  -3.846  0.5724E+00  0.6351E+01
  -3.836  0.5694E+00  0.6356E+01
  -3.826  0.5664E+00  0.6362E+01
  -3.816  0.5633E+00  0.6368E+01
  -3.806  0.5603E+00  0.6373E+01
  -3.796  0.5572E+00  0.6379E+01
  -3.786  0.5539E+00  0.6385E+01
  -3.776  0.5527E+00  0.6390E+01
  -3.766  0.5528E+00  0.6396E+01
  -3.756  0.5532E+00  0.6401E+01
  -3.746  0.5534E+00  0.6407E+01
  -3.736  0.5517E+00  0.6412E+01
  -3.726  0.5505E+00  0.6418E+01
  -3.716  0.5495E+00  0.6423E+01
  -3.706  0.5485E+00  0.6429E+01
  -3.696  0.5474E+00  0.6434E+01
  -3.686  0.5464E+00  0.6440E+01
  -3.676  0.5465E+00  0.6445E+01
  -3.666  0.5469E+00  0.6451E+01
  -3.656  0.5473E+00  0.6456E+01
  -3.646  0.5540E+00  0.6462E+01
  -3.636  0.5634E+00  0.6467E+01
  -3.626  0.5596E+00  0.6473E+01
  -3.616  0.5538E+00  0.6478E+01
  -3.606  0.5516E+00  0.6484E+01
  -3.596  0.5521E+00  0.6489E+01
  -3.586  0.5444E+00  0.6495E+01
  -3.576  0.5253E+00  0.6500E+01
  -3.566  0.5008E+00  0.6505E+01
  -3.556  0.5145E+00  0.6510E+01
  -3.546  0.5640E+00  0.6516E+01
  -3.536  0.5823E+00  0.6521E+01
  -3.526  0.5833E+00  0.6527E+01
  -3.516  0.5834E+00  0.6533E+01
  -3.506  0.5733E+00  0.6539E+01
  -3.496  0.5703E+00  0.6545E+01
  -3.486  0.5714E+00  0.6550E+01
  -3.476  0.5724E+00  0.6556E+01
  -3.466  0.5732E+00  0.6562E+01
  -3.456  0.5738E+00  0.6567E+01
  -3.446  0.5743E+00  0.6573E+01
  -3.436  0.5745E+00  0.6579E+01
  -3.426  0.5745E+00  0.6585E+01
  -3.416  0.5748E+00  0.6590E+01
  -3.406  0.5755E+00  0.6596E+01
  -3.396  0.5745E+00  0.6602E+01
  -3.386  0.5723E+00  0.6608E+01
  -3.376  0.5716E+00  0.6613E+01
  -3.366  0.5710E+00  0.6619E+01
  -3.356  0.5703E+00  0.6625E+01
  -3.346  0.5696E+00  0.6630E+01
  -3.336  0.5690E+00  0.6636E+01
  -3.326  0.5684E+00  0.6642E+01
  -3.316  0.5681E+00  0.6648E+01
  -3.306  0.5678E+00  0.6653E+01
  -3.296  0.5676E+00  0.6659E+01
  -3.286  0.5674E+00  0.6665E+01
  -3.276  0.5694E+00  0.6670E+01
  -3.266  0.5720E+00  0.6676E+01
  -3.256  0.5713E+00  0.6682E+01
  -3.246  0.5706E+00  0.6687E+01
  -3.236  0.5699E+00  0.6693E+01
  -3.226  0.5693E+00  0.6699E+01
  -3.216  0.5685E+00  0.6704E+01
  -3.206  0.5678E+00  0.6710E+01
  -3.196  0.5671E+00  0.6716E+01
  -3.186  0.5664E+00  0.6722E+01
  -3.176  0.5657E+00  0.6727E+01
  -3.166  0.5650E+00  0.6733E+01
  -3.156  0.5643E+00  0.6738E+01
  -3.146  0.5636E+00  0.6744E+01
  -3.136  0.5629E+00  0.6750E+01
  -3.126  0.5622E+00  0.6755E+01
  -3.116  0.5615E+00  0.6761E+01
  -3.106  0.5607E+00  0.6767E+01
  -3.096  0.5614E+00  0.6772E+01
  -3.086  0.5578E+00  0.6778E+01
  -3.076  0.5541E+00  0.6783E+01
  -3.066  0.5532E+00  0.6789E+01
  -3.056  0.5524E+00  0.6794E+01
  -3.046  0.5515E+00  0.6800E+01
  -3.036  0.5506E+00  0.6805E+01
  -3.026  0.5498E+00  0.6811E+01
  -3.016  0.5489E+00  0.6816E+01
  -3.006  0.5480E+00  0.6822E+01
  -2.996  0.5472E+00  0.6827E+01
  -2.986  0.5463E+00  0.6833E+01
  -2.976  0.5455E+00  0.6838E+01
  -2.966  0.5446E+00  0.6844E+01
  -2.956  0.5437E+00  0.6849E+01
  -2.946  0.5429E+00  0.6855E+01
  -2.936  0.5468E+00  0.6860E+01
  -2.926  0.5596E+00  0.6866E+01
  -2.916  0.5594E+00  0.6871E+01
  -2.906  0.5573E+00  0.6877E+01
  -2.896  0.5571E+00  0.6882E+01
  -2.886  0.5586E+00  0.6888E+01
  -2.876  0.5592E+00  0.6894E+01
  -2.866  0.5589E+00  0.6899E+01
  -2.856  0.5575E+00  0.6905E+01
  -2.846  0.5552E+00  0.6910E+01
  -2.836  0.5519E+00  0.6916E+01
  -2.826  0.5491E+00  0.6921E+01
  -2.816  0.5697E+00  0.6927E+01
  -2.806  0.5723E+00  0.6933E+01
  -2.796  0.5727E+00  0.6938E+01
  -2.786  0.5726E+00  0.6944E+01
  -2.776  0.5719E+00  0.6950E+01
  -2.766  0.5711E+00  0.6956E+01
  -2.756  0.5702E+00  0.6961E+01
  -2.746  0.5694E+00  0.6967E+01
  -2.736  0.5685E+00  0.6973E+01
  -2.726  0.5677E+00  0.6978E+01
  -2.716  0.5668E+00  0.6984E+01
  -2.706  0.5659E+00  0.6990E+01
  -2.696  0.5651E+00  0.6995E+01
  -2.686  0.5642E+00  0.7001E+01
  -2.676  0.5633E+00  0.7007E+01
  -2.666  0.5624E+00  0.7012E+01
  -2.656  0.5615E+00  0.7018E+01
  -2.646  0.5606E+00  0.7023E+01
  -2.636  0.5596E+00  0.7029E+01
  -2.626  0.5587E+00  0.7035E+01
  -2.616  0.5578E+00  0.7040E+01
  -2.606  0.5554E+00  0.7046E+01
  -2.596  0.5519E+00  0.7051E+01
  -2.586  0.5493E+00  0.7057E+01
  -2.576  0.5467E+00  0.7062E+01
  -2.566  0.5455E+00  0.7068E+01
  -2.556  0.5446E+00  0.7073E+01
  -2.546  0.5440E+00  0.7079E+01
  -2.536  0.5411E+00  0.7084E+01
  -2.526  0.5502E+00  0.7090E+01
  -2.516  0.5567E+00  0.7095E+01
  -2.506  0.5604E+00  0.7101E+01
  -2.496  0.5615E+00  0.7106E+01
  -2.486  0.5600E+00  0.7112E+01
  -2.476  0.5561E+00  0.7117E+01
  -2.466  0.5545E+00  0.7123E+01
  -2.456  0.5532E+00  0.7129E+01
  -2.446  0.5518E+00  0.7134E+01
  -2.436  0.5502E+00  0.7140E+01
  -2.426  0.5485E+00  0.7145E+01
  -2.416  0.5441E+00  0.7151E+01
  -2.406  0.5370E+00  0.7156E+01
  -2.396  0.5304E+00  0.7161E+01
  -2.386  0.5265E+00  0.7167E+01
  -2.376  0.5258E+00  0.7172E+01
  -2.366  0.5301E+00  0.7177E+01
  -2.356  0.5664E+00  0.7183E+01
  -2.346  0.5873E+00  0.7188E+01
  -2.336  0.5930E+00  0.7194E+01
  -2.326  0.5948E+00  0.7200E+01
  -2.316  0.5919E+00  0.7206E+01
  -2.306  0.5879E+00  0.7212E+01
  -2.296  0.5830E+00  0.7218E+01
  -2.286  0.5770E+00  0.7224E+01
  -2.276  0.5701E+00  0.7229E+01
  -2.266  0.5622E+00  0.7235E+01
  -2.256  0.5530E+00  0.7241E+01
  -2.246  0.5322E+00  0.7246E+01
  -2.236  0.5131E+00  0.7251E+01
  -2.226  0.4962E+00  0.7256E+01
  -2.216  0.4813E+00  0.7261E+01
  -2.206  0.4678E+00  0.7266E+01
  -2.196  0.4534E+00  0.7271E+01
  -2.186  0.4379E+00  0.7275E+01
  -2.176  0.4214E+00  0.7279E+01
  -2.166  0.4039E+00  0.7284E+01
  -2.156  0.3855E+00  0.7287E+01
  -2.146  0.3661E+00  0.7291E+01
  -2.136  0.3610E+00  0.7295E+01
  -2.126  0.3573E+00  0.7298E+01
  -2.116  0.3542E+00  0.7302E+01
  -2.106  0.3539E+00  0.7306E+01
  -2.096  0.3556E+00  0.7309E+01
  -2.086  0.3574E+00  0.7313E+01
  -2.076  0.3594E+00  0.7316E+01
  -2.066  0.3615E+00  0.7320E+01
  -2.056  0.3637E+00  0.7323E+01
  -2.046  0.3660E+00  0.7327E+01
  -2.036  0.3684E+00  0.7331E+01
  -2.026  0.3708E+00  0.7334E+01
  -2.016  0.3732E+00  0.7338E+01
  -2.006  0.3757E+00  0.7342E+01
  -1.996  0.3782E+00  0.7346E+01
  -1.986  0.3807E+00  0.7349E+01
  -1.976  0.3829E+00  0.7353E+01
  -1.966  0.3752E+00  0.7357E+01
  -1.956  0.3675E+00  0.7361E+01
  -1.946  0.3602E+00  0.7364E+01
  -1.936  0.3568E+00  0.7368E+01
  -1.926  0.3536E+00  0.7372E+01
  -1.916  0.3579E+00  0.7375E+01
  -1.906  0.3623E+00  0.7379E+01
  -1.896  0.3665E+00  0.7382E+01
  -1.886  0.3706E+00  0.7386E+01
  -1.876  0.3745E+00  0.7390E+01
  -1.866  0.3784E+00  0.7394E+01
  -1.856  0.3822E+00  0.7397E+01
  -1.846  0.3860E+00  0.7401E+01
  -1.836  0.3899E+00  0.7405E+01
  -1.826  0.3940E+00  0.7409E+01
  -1.816  0.3982E+00  0.7413E+01
  -1.806  0.4026E+00  0.7417E+01
  -1.796  0.4071E+00  0.7421E+01
  -1.786  0.4118E+00  0.7425E+01
  -1.776  0.4166E+00  0.7429E+01
  -1.766  0.4215E+00  0.7433E+01
  -1.756  0.4266E+00  0.7438E+01
  -1.746  0.4318E+00  0.7442E+01
  -1.736  0.4372E+00  0.7446E+01
  -1.726  0.4427E+00  0.7451E+01
  -1.716  0.4484E+00  0.7455E+01
  -1.706  0.4542E+00  0.7460E+01
  -1.696  0.4602E+00  0.7464E+01
  -1.686  0.4663E+00  0.7469E+01
  -1.676  0.4725E+00  0.7474E+01
  -1.666  0.4789E+00  0.7478E+01
  -1.656  0.4854E+00  0.7483E+01
  -1.646  0.4922E+00  0.7488E+01
  -1.636  0.4917E+00  0.7493E+01
  -1.626  0.4869E+00  0.7498E+01
  -1.616  0.4820E+00  0.7503E+01
  -1.606  0.4771E+00  0.7508E+01
  -1.596  0.4727E+00  0.7512E+01
  -1.586  0.4706E+00  0.7517E+01
  -1.576  0.5150E+00  0.7522E+01
  -1.566  0.5649E+00  0.7527E+01
  -1.556  0.6057E+00  0.7533E+01
  -1.546  0.6472E+00  0.7539E+01
  -1.536  0.6752E+00  0.7546E+01
  -1.526  0.6897E+00  0.7553E+01
  -1.516  0.6907E+00  0.7560E+01
  -1.506  0.6782E+00  0.7567E+01
  -1.496  0.6563E+00  0.7573E+01
  -1.486  0.6343E+00  0.7580E+01
  -1.476  0.6128E+00  0.7586E+01
  -1.466  0.5915E+00  0.7592E+01
  -1.456  0.5706E+00  0.7598E+01
  -1.446  0.5500E+00  0.7603E+01
  -1.436  0.5297E+00  0.7609E+01
  -1.426  0.5098E+00  0.7614E+01
  -1.416  0.4902E+00  0.7619E+01
  -1.406  0.4709E+00  0.7624E+01
  -1.396  0.4519E+00  0.7628E+01
  -1.386  0.4333E+00  0.7633E+01
  -1.376  0.4150E+00  0.7637E+01
  -1.366  0.4247E+00  0.7641E+01
  -1.356  0.4359E+00  0.7646E+01
  -1.346  0.4470E+00  0.7650E+01
  -1.336  0.4580E+00  0.7655E+01
  -1.326  0.4689E+00  0.7659E+01
  -1.316  0.4714E+00  0.7664E+01
  -1.306  0.4524E+00  0.7669E+01
  -1.296  0.4418E+00  0.7673E+01
  -1.286  0.4324E+00  0.7677E+01
  -1.276  0.4050E+00  0.7682E+01
  -1.266  0.3480E+00  0.7685E+01
  -1.256  0.3717E+00  0.7689E+01
  -1.246  0.3983E+00  0.7693E+01
  -1.236  0.4120E+00  0.7697E+01
  -1.226  0.4305E+00  0.7701E+01
  -1.216  0.4563E+00  0.7705E+01
  -1.206  0.4656E+00  0.7710E+01
  -1.196  0.4285E+00  0.7715E+01
  -1.186  0.3897E+00  0.7719E+01
  -1.176  0.3579E+00  0.7722E+01
  -1.166  0.3404E+00  0.7726E+01
  -1.156  0.3264E+00  0.7729E+01
  -1.146  0.3160E+00  0.7732E+01
  -1.136  0.3092E+00  0.7736E+01
  -1.126  0.3056E+00  0.7739E+01
  -1.116  0.3035E+00  0.7742E+01
  -1.106  0.3013E+00  0.7745E+01
  -1.096  0.2991E+00  0.7748E+01
  -1.086  0.2969E+00  0.7751E+01
  -1.076  0.2947E+00  0.7754E+01
  -1.066  0.2924E+00  0.7757E+01
  -1.056  0.2902E+00  0.7759E+01
  -1.046  0.2879E+00  0.7762E+01
  -1.036  0.2857E+00  0.7765E+01
  -1.026  0.2834E+00  0.7768E+01
  -1.016  0.2811E+00  0.7771E+01
  -1.006  0.2788E+00  0.7774E+01
  -0.996  0.2765E+00  0.7776E+01
  -0.986  0.2742E+00  0.7779E+01
  -0.976  0.2718E+00  0.7782E+01
  -0.966  0.2695E+00  0.7785E+01
  -0.956  0.2672E+00  0.7787E+01
  -0.946  0.2648E+00  0.7790E+01
  -0.936  0.2624E+00  0.7793E+01
  -0.926  0.2600E+00  0.7795E+01
  -0.916  0.2576E+00  0.7798E+01
  -0.906  0.2552E+00  0.7800E+01
  -0.896  0.2528E+00  0.7803E+01
  -0.886  0.2504E+00  0.7805E+01
  -0.876  0.2479E+00  0.7808E+01
  -0.866  0.2455E+00  0.7810E+01
  -0.856  0.2430E+00  0.7813E+01
  -0.846  0.2405E+00  0.7815E+01
  -0.836  0.2381E+00  0.7818E+01
  -0.826  0.2356E+00  0.7820E+01
  -0.816  0.2331E+00  0.7822E+01
  -0.806  0.2305E+00  0.7825E+01
  -0.796  0.2280E+00  0.7827E+01
  -0.786  0.2255E+00  0.7829E+01
  -0.776  0.2229E+00  0.7831E+01
  -0.766  0.2204E+00  0.7834E+01
  -0.756  0.2178E+00  0.7836E+01
  -0.746  0.2152E+00  0.7838E+01
  -0.736  0.2126E+00  0.7840E+01
  -0.726  0.2100E+00  0.7842E+01
  -0.716  0.2074E+00  0.7844E+01
  -0.706  0.2048E+00  0.7846E+01
  -0.696  0.2021E+00  0.7848E+01
  -0.686  0.1995E+00  0.7850E+01
  -0.676  0.1968E+00  0.7852E+01
  -0.666  0.1941E+00  0.7854E+01
  -0.656  0.1915E+00  0.7856E+01
  -0.646  0.1888E+00  0.7858E+01
  -0.636  0.1861E+00  0.7860E+01
  -0.626  0.1833E+00  0.7862E+01
  -0.616  0.1806E+00  0.7864E+01
  -0.606  0.1781E+00  0.7866E+01
  -0.596  0.1769E+00  0.7867E+01
  -0.586  0.1775E+00  0.7869E+01
  -0.576  0.1783E+00  0.7871E+01
  -0.566  0.1791E+00  0.7873E+01
  -0.556  0.1799E+00  0.7874E+01
  -0.546  0.1819E+00  0.7876E+01
  -0.536  0.1826E+00  0.7878E+01
  -0.526  0.1814E+00  0.7880E+01
  -0.516  0.1802E+00  0.7882E+01
  -0.506  0.1792E+00  0.7884E+01
  -0.496  0.1782E+00  0.7885E+01
  -0.486  0.1773E+00  0.7887E+01
  -0.476  0.1763E+00  0.7889E+01
  -0.466  0.1752E+00  0.7891E+01
  -0.456  0.1741E+00  0.7892E+01
  -0.446  0.1730E+00  0.7894E+01
  -0.436  0.1718E+00  0.7896E+01
  -0.426  0.1707E+00  0.7898E+01
  -0.416  0.1695E+00  0.7899E+01
  -0.406  0.1684E+00  0.7901E+01
  -0.396  0.1672E+00  0.7903E+01
  -0.386  0.1660E+00  0.7904E+01
  -0.376  0.1649E+00  0.7906E+01
  -0.366  0.1637E+00  0.7908E+01
  -0.356  0.1625E+00  0.7909E+01
  -0.346  0.1613E+00  0.7911E+01
  -0.336  0.1601E+00  0.7912E+01
  -0.326  0.1589E+00  0.7914E+01
  -0.316  0.1577E+00  0.7916E+01
  -0.306  0.1565E+00  0.7917E+01
  -0.296  0.1553E+00  0.7919E+01
  -0.286  0.1541E+00  0.7920E+01
  -0.276  0.1529E+00  0.7922E+01
  -0.266  0.1517E+00  0.7923E+01
  -0.256  0.1504E+00  0.7925E+01
  -0.246  0.1492E+00  0.7926E+01
  -0.236  0.1480E+00  0.7928E+01
  -0.226  0.1467E+00  0.7929E+01
  -0.216  0.1454E+00  0.7931E+01
  -0.206  0.1442E+00  0.7932E+01
  -0.196  0.1429E+00  0.7934E+01
  -0.186  0.1424E+00  0.7935E+01
  -0.176  0.1445E+00  0.7937E+01
  -0.166  0.1466E+00  0.7938E+01
  -0.156  0.1488E+00  0.7939E+01
  -0.146  0.1496E+00  0.7941E+01
  -0.136  0.1389E+00  0.7942E+01
  -0.126  0.1312E+00  0.7944E+01
  -0.116  0.1242E+00  0.7945E+01
  -0.106  0.1128E+00  0.7946E+01
  -0.096  0.1026E+00  0.7947E+01
  -0.086  0.9274E-01  0.7948E+01
  -0.076  0.8515E-01  0.7949E+01
  -0.066  0.8059E-01  0.7950E+01
  -0.056  0.7771E-01  0.7951E+01
  -0.046  0.7690E-01  0.7952E+01
  -0.036  0.7770E-01  0.7952E+01
  -0.026  0.7810E-01  0.7953E+01
  -0.016  0.7766E-01  0.7954E+01
  -0.006  0.7722E-01  0.7955E+01
   0.004  0.7678E-01  0.7955E+01
   0.014  0.7634E-01  0.7956E+01
   0.024  0.7588E-01  0.7957E+01
   0.034  0.7542E-01  0.7958E+01
   0.044  0.7496E-01  0.7958E+01
   0.054  0.7449E-01  0.7959E+01
   0.064  0.7401E-01  0.7960E+01
   0.074  0.7353E-01  0.7961E+01
   0.084  0.7304E-01  0.7961E+01
   0.094  0.7254E-01  0.7962E+01
   0.104  0.7204E-01  0.7963E+01
   0.114  0.7153E-01  0.7964E+01
   0.124  0.7102E-01  0.7964E+01
   0.134  0.7050E-01  0.7965E+01
   0.144  0.6998E-01  0.7966E+01
   0.154  0.6945E-01  0.7966E+01
   0.164  0.6891E-01  0.7967E+01
   0.174  0.6836E-01  0.7968E+01
   0.184  0.6781E-01  0.7968E+01
   0.194  0.6726E-01  0.7969E+01
   0.204  0.6670E-01  0.7970E+01
   0.214  0.6613E-01  0.7970E+01
   0.224  0.6556E-01  0.7971E+01
   0.234  0.6498E-01  0.7972E+01
   0.244  0.6439E-01  0.7972E+01
   0.254  0.6380E-01  0.7973E+01
   0.264  0.6320E-01  0.7974E+01
   0.274  0.6260E-01  0.7974E+01
   0.284  0.6199E-01  0.7975E+01
   0.294  0.6137E-01  0.7976E+01
   0.304  0.6075E-01  0.7976E+01
   0.314  0.6012E-01  0.7977E+01
   0.324  0.5949E-01  0.7977E+01
   0.334  0.5885E-01  0.7978E+01
   0.344  0.5820E-01  0.7979E+01
   0.354  0.5755E-01  0.7979E+01
   0.364  0.5689E-01  0.7980E+01
   0.374  0.5623E-01  0.7980E+01
   0.384  0.5556E-01  0.7981E+01
   0.394  0.5488E-01  0.7981E+01
   0.404  0.5420E-01  0.7982E+01
   0.414  0.5351E-01  0.7982E+01
   0.424  0.5281E-01  0.7983E+01
   0.434  0.5211E-01  0.7984E+01
   0.444  0.5141E-01  0.7984E+01
   0.454  0.5070E-01  0.7985E+01
   0.464  0.4998E-01  0.7985E+01
   0.474  0.4925E-01  0.7986E+01
   0.484  0.4852E-01  0.7986E+01
   0.494  0.4778E-01  0.7987E+01
   0.504  0.4704E-01  0.7987E+01
   0.514  0.4629E-01  0.7987E+01
   0.524  0.4554E-01  0.7988E+01
   0.534  0.4478E-01  0.7988E+01
   0.544  0.4401E-01  0.7989E+01
   0.554  0.4324E-01  0.7989E+01
   0.564  0.4246E-01  0.7990E+01
   0.574  0.4167E-01  0.7990E+01
   0.584  0.4088E-01  0.7991E+01
   0.594  0.4009E-01  0.7991E+01
   0.604  0.3928E-01  0.7991E+01
   0.614  0.3847E-01  0.7992E+01
   0.624  0.3766E-01  0.7992E+01
   0.634  0.3684E-01  0.7992E+01
   0.644  0.3601E-01  0.7993E+01
   0.654  0.3518E-01  0.7993E+01
   0.664  0.3434E-01  0.7994E+01
   0.674  0.3349E-01  0.7994E+01
   0.684  0.3265E-01  0.7994E+01
   0.694  0.3180E-01  0.7995E+01
   0.704  0.3095E-01  0.7995E+01
   0.714  0.3010E-01  0.7995E+01
   0.724  0.2925E-01  0.7995E+01
   0.734  0.2841E-01  0.7996E+01
   0.744  0.2758E-01  0.7996E+01
   0.754  0.2676E-01  0.7996E+01
   0.764  0.2594E-01  0.7997E+01
   0.774  0.2538E-01  0.7997E+01
   0.784  0.2505E-01  0.7997E+01
   0.794  0.2518E-01  0.7997E+01
   0.804  0.2537E-01  0.7998E+01
   0.814  0.2555E-01  0.7998E+01
   0.824  0.2572E-01  0.7998E+01
   0.834  0.2587E-01  0.7998E+01
   0.844  0.2601E-01  0.7999E+01
   0.854  0.2614E-01  0.7999E+01
   0.864  0.2626E-01  0.7999E+01
   0.874  0.2636E-01  0.7999E+01
   0.884  0.2645E-01  0.8000E+01
   0.894  0.2653E-01  0.8000E+01
   0.904  0.2660E-01  0.8000E+01
   0.914  0.2665E-01  0.8000E+01
   0.924  0.2669E-01  0.8001E+01
   0.934  0.2672E-01  0.8001E+01
   0.944  0.2674E-01  0.8001E+01
   0.954  0.2674E-01  0.8002E+01
   0.964  0.2673E-01  0.8002E+01
   0.974  0.2671E-01  0.8002E+01
   0.984  0.2668E-01  0.8002E+01
   0.994  0.2663E-01  0.8003E+01
   1.004  0.2657E-01  0.8003E+01
   1.014  0.2650E-01  0.8003E+01
   1.024  0.2688E-01  0.8003E+01
   1.034  0.2761E-01  0.8004E+01
   1.044  0.2848E-01  0.8004E+01
   1.054  0.2937E-01  0.8004E+01
   1.064  0.3025E-01  0.8005E+01
   1.074  0.3115E-01  0.8005E+01
   1.084  0.3205E-01  0.8005E+01
   1.094  0.3295E-01  0.8005E+01
   1.104  0.3386E-01  0.8006E+01
   1.114  0.3476E-01  0.8006E+01
   1.124  0.3567E-01  0.8007E+01
   1.134  0.3657E-01  0.8007E+01
   1.144  0.3746E-01  0.8007E+01
   1.154  0.3835E-01  0.8008E+01
   1.164  0.3923E-01  0.8008E+01
   1.174  0.4010E-01  0.8008E+01
   1.184  0.4097E-01  0.8009E+01
   1.194  0.4183E-01  0.8009E+01
   1.204  0.4268E-01  0.8010E+01
   1.214  0.4353E-01  0.8010E+01
   1.224  0.4437E-01  0.8011E+01
   1.234  0.4520E-01  0.8011E+01
   1.244  0.4603E-01  0.8011E+01
   1.254  0.4685E-01  0.8012E+01
   1.264  0.4767E-01  0.8012E+01
   1.274  0.4848E-01  0.8013E+01
   1.284  0.4928E-01  0.8013E+01
   1.294  0.5007E-01  0.8014E+01
   1.304  0.5086E-01  0.8014E+01
   1.314  0.5164E-01  0.8015E+01
   1.324  0.5242E-01  0.8015E+01
   1.334  0.5319E-01  0.8016E+01
   1.344  0.5395E-01  0.8016E+01
   1.354  0.5470E-01  0.8017E+01
   1.364  0.5545E-01  0.8018E+01
   1.374  0.5620E-01  0.8018E+01
   1.384  0.5693E-01  0.8019E+01
   1.394  0.5766E-01  0.8019E+01
   1.404  0.5838E-01  0.8020E+01
   1.414  0.5910E-01  0.8020E+01
   1.424  0.5981E-01  0.8021E+01
   1.434  0.6051E-01  0.8022E+01
   1.444  0.6121E-01  0.8022E+01
   1.454  0.6190E-01  0.8023E+01
   1.464  0.6258E-01  0.8023E+01
   1.474  0.6326E-01  0.8024E+01
   1.484  0.6393E-01  0.8025E+01
   1.494  0.6459E-01  0.8025E+01
   1.504  0.6525E-01  0.8026E+01
   1.514  0.6590E-01  0.8027E+01
   1.524  0.6655E-01  0.8027E+01
   1.534  0.6718E-01  0.8028E+01
   1.544  0.6782E-01  0.8029E+01
   1.554  0.6844E-01  0.8029E+01
   1.564  0.6906E-01  0.8030E+01
   1.574  0.6967E-01  0.8031E+01
   1.584  0.7027E-01  0.8031E+01
   1.594  0.7087E-01  0.8032E+01
   1.604  0.7146E-01  0.8033E+01
   1.614  0.7205E-01  0.8034E+01
   1.624  0.7263E-01  0.8034E+01
   1.634  0.7320E-01  0.8035E+01
   1.644  0.7377E-01  0.8036E+01
   1.654  0.7433E-01  0.8036E+01
   1.664  0.7488E-01  0.8037E+01
   1.674  0.7542E-01  0.8038E+01
   1.684  0.7596E-01  0.8039E+01
   1.694  0.7650E-01  0.8039E+01
   1.704  0.7702E-01  0.8040E+01
   1.714  0.7754E-01  0.8041E+01
   1.724  0.7805E-01  0.8042E+01
   1.734  0.7856E-01  0.8043E+01
   1.744  0.7906E-01  0.8043E+01
   1.754  0.7956E-01  0.8044E+01
   1.764  0.8004E-01  0.8045E+01
   1.774  0.8037E-01  0.8046E+01
   1.784  0.8011E-01  0.8047E+01
   1.794  0.7955E-01  0.8047E+01
   1.804  0.8089E-01  0.8048E+01
   1.814  0.8438E-01  0.8049E+01
   1.824  0.9005E-01  0.8050E+01
   1.834  0.9831E-01  0.8051E+01
   1.844  0.1109E+00  0.8052E+01
   1.854  0.1275E+00  0.8053E+01
   1.864  0.1470E+00  0.8054E+01
   1.874  0.1733E+00  0.8056E+01
   1.884  0.1828E+00  0.8058E+01
   1.894  0.1681E+00  0.8060E+01
   1.904  0.1784E+00  0.8061E+01
   1.914  0.1808E+00  0.8063E+01
   1.924  0.1758E+00  0.8065E+01
   1.934  0.1713E+00  0.8067E+01
   1.944  0.1668E+00  0.8068E+01
   1.954  0.1648E+00  0.8070E+01
   1.964  0.1683E+00  0.8072E+01
   1.974  0.1716E+00  0.8073E+01
   1.984  0.1748E+00  0.8075E+01
   1.994  0.1780E+00  0.8077E+01
   2.004  0.1811E+00  0.8079E+01
   2.014  0.1841E+00  0.8080E+01
   2.024  0.1870E+00  0.8082E+01
   2.034  0.1899E+00  0.8084E+01
   2.044  0.1926E+00  0.8086E+01
   2.054  0.1951E+00  0.8088E+01
   2.064  0.1974E+00  0.8090E+01
   2.074  0.1993E+00  0.8092E+01
   2.084  0.2011E+00  0.8094E+01
   2.094  0.2026E+00  0.8096E+01
   2.104  0.2043E+00  0.8098E+01
   2.114  0.2066E+00  0.8100E+01
   2.124  0.2093E+00  0.8102E+01
   2.134  0.2075E+00  0.8104E+01
   2.144  0.2047E+00  0.8106E+01
   2.154  0.2019E+00  0.8108E+01
   2.164  0.1992E+00  0.8110E+01
   2.174  0.1964E+00  0.8112E+01
   2.184  0.1936E+00  0.8114E+01
   2.194  0.1912E+00  0.8116E+01
   2.204  0.1950E+00  0.8118E+01
   2.214  0.2006E+00  0.8120E+01
   2.224  0.2062E+00  0.8122E+01
   2.234  0.2117E+00  0.8124E+01
   2.244  0.2173E+00  0.8126E+01
   2.254  0.2228E+00  0.8129E+01
   2.264  0.2283E+00  0.8131E+01
   2.274  0.2338E+00  0.8133E+01
   2.284  0.2393E+00  0.8135E+01
   2.294  0.2448E+00  0.8138E+01
   2.304  0.2503E+00  0.8140E+01
   2.314  0.2557E+00  0.8143E+01
   2.324  0.2611E+00  0.8145E+01
   2.334  0.2666E+00  0.8148E+01
   2.344  0.2720E+00  0.8151E+01
   2.354  0.2774E+00  0.8154E+01
   2.364  0.2828E+00  0.8156E+01
   2.374  0.2881E+00  0.8159E+01
   2.384  0.2935E+00  0.8162E+01
   2.394  0.2989E+00  0.8165E+01
   2.404  0.3044E+00  0.8168E+01
   2.414  0.3099E+00  0.8171E+01
   2.424  0.3155E+00  0.8174E+01
   2.434  0.3212E+00  0.8177E+01
   2.444  0.3270E+00  0.8181E+01
   2.454  0.3332E+00  0.8184E+01
   2.464  0.3399E+00  0.8187E+01
   2.474  0.3470E+00  0.8191E+01
   2.484  0.3607E+00  0.8194E+01
   2.494  0.3849E+00  0.8198E+01
   2.504  0.4221E+00  0.8202E+01
   2.514  0.4736E+00  0.8207E+01
   2.524  0.5392E+00  0.8212E+01
   2.534  0.6192E+00  0.8217E+01
   2.544  0.7197E+00  0.8224E+01
   2.554  0.8216E+00  0.8241E+01
   2.564  0.8570E+00  0.8249E+01
   2.574  0.8239E+00  0.8258E+01
   2.584  0.7215E+00  0.8265E+01
   2.594  0.6025E+00  0.8272E+01
   2.604  0.6478E+00  0.8278E+01
   2.614  0.6894E+00  0.8285E+01
   2.624  0.7189E+00  0.8292E+01
   2.634  0.7338E+00  0.8299E+01
   2.644  0.7341E+00  0.8307E+01
   2.654  0.7198E+00  0.8314E+01
   2.664  0.6882E+00  0.8321E+01
   2.674  0.6576E+00  0.8328E+01
   2.684  0.6250E+00  0.8334E+01
   2.694  0.5841E+00  0.8340E+01
   2.704  0.5347E+00  0.8346E+01
   2.714  0.4934E+00  0.8351E+01
   2.724  0.4904E+00  0.8356E+01
   2.734  0.4885E+00  0.8361E+01
   2.744  0.4872E+00  0.8365E+01
   2.754  0.4860E+00  0.8370E+01
   2.764  0.4848E+00  0.8375E+01
   2.774  0.4837E+00  0.8380E+01
   2.784  0.4788E+00  0.8385E+01
   2.794  0.4710E+00  0.8390E+01
   2.804  0.4634E+00  0.8394E+01
   2.814  0.4560E+00  0.8399E+01
   2.824  0.4485E+00  0.8403E+01
   2.834  0.4411E+00  0.8408E+01
   2.844  0.4338E+00  0.8412E+01
   2.854  0.4264E+00  0.8416E+01
   2.864  0.4191E+00  0.8421E+01
   2.874  0.4118E+00  0.8425E+01
   2.884  0.4043E+00  0.8429E+01
   2.894  0.3976E+00  0.8433E+01
   2.904  0.3969E+00  0.8437E+01
   2.914  0.3967E+00  0.8441E+01
   2.924  0.3972E+00  0.8445E+01
   2.934  0.4012E+00  0.8449E+01
   2.944  0.4054E+00  0.8453E+01
   2.954  0.4088E+00  0.8457E+01
   2.964  0.4041E+00  0.8461E+01
   2.974  0.3971E+00  0.8465E+01
   2.984  0.3910E+00  0.8469E+01
   2.994  0.3850E+00  0.8473E+01
   3.004  0.3789E+00  0.8477E+01
   3.014  0.3726E+00  0.8480E+01
   3.024  0.3659E+00  0.8484E+01
   3.034  0.3589E+00  0.8488E+01
   3.044  0.3518E+00  0.8491E+01
   3.054  0.3444E+00  0.8495E+01
   3.064  0.3375E+00  0.8498E+01
   3.074  0.3395E+00  0.8502E+01
   3.084  0.3428E+00  0.8505E+01
   3.094  0.3463E+00  0.8508E+01
   3.104  0.3444E+00  0.8512E+01
   3.114  0.3420E+00  0.8515E+01
   3.124  0.3395E+00  0.8519E+01
   3.134  0.3370E+00  0.8522E+01
   3.144  0.3346E+00  0.8525E+01
   3.154  0.3322E+00  0.8529E+01
   3.164  0.3298E+00  0.8532E+01
   3.174  0.3273E+00  0.8535E+01
   3.184  0.3248E+00  0.8539E+01
   3.194  0.3223E+00  0.8542E+01
   3.204  0.3197E+00  0.8545E+01
   3.214  0.3171E+00  0.8548E+01
   3.224  0.3143E+00  0.8551E+01
   3.234  0.3114E+00  0.8555E+01
   3.244  0.3090E+00  0.8558E+01
   3.254  0.3107E+00  0.8561E+01
   3.264  0.3125E+00  0.8564E+01
   3.274  0.3155E+00  0.8567E+01
   3.284  0.3191E+00  0.8570E+01
   3.294  0.3227E+00  0.8573E+01
   3.304  0.3255E+00  0.8577E+01
   3.314  0.3244E+00  0.8580E+01
   3.324  0.3229E+00  0.8583E+01
   3.334  0.3214E+00  0.8586E+01
   3.344  0.3199E+00  0.8590E+01
   3.354  0.3184E+00  0.8593E+01
   3.364  0.3169E+00  0.8596E+01
   3.374  0.3154E+00  0.8599E+01
   3.384  0.3140E+00  0.8602E+01
   3.394  0.3125E+00  0.8605E+01
   3.404  0.3111E+00  0.8608E+01
   3.414  0.3096E+00  0.8612E+01
   3.424  0.3082E+00  0.8615E+01
   3.434  0.3068E+00  0.8618E+01
   3.444  0.3054E+00  0.8621E+01
   3.454  0.3040E+00  0.8624E+01
   3.464  0.3026E+00  0.8627E+01
   3.474  0.3012E+00  0.8630E+01
   3.484  0.2998E+00  0.8633E+01
   3.494  0.2985E+00  0.8636E+01
   3.504  0.2971E+00  0.8639E+01
   3.514  0.2958E+00  0.8642E+01
   3.524  0.2945E+00  0.8645E+01
   3.534  0.2931E+00  0.8648E+01
   3.544  0.2918E+00  0.8651E+01
   3.554  0.2905E+00  0.8654E+01
   3.564  0.2892E+00  0.8656E+01
   3.574  0.2880E+00  0.8659E+01
   3.584  0.2867E+00  0.8662E+01
   3.594  0.2854E+00  0.8665E+01
   3.604  0.2842E+00  0.8668E+01
   3.614  0.2829E+00  0.8671E+01
   3.624  0.2817E+00  0.8674E+01
   3.634  0.2805E+00  0.8676E+01
   3.644  0.2793E+00  0.8679E+01
   3.654  0.2781E+00  0.8682E+01
   3.664  0.2769E+00  0.8685E+01
   3.674  0.2757E+00  0.8688E+01
   3.684  0.2745E+00  0.8690E+01
   3.694  0.2733E+00  0.8693E+01
   3.704  0.2722E+00  0.8696E+01
   3.714  0.2710E+00  0.8698E+01
   3.724  0.2699E+00  0.8701E+01
   3.734  0.2688E+00  0.8704E+01
   3.744  0.2690E+00  0.8707E+01
   3.754  0.2720E+00  0.8709E+01
   3.764  0.2999E+00  0.8712E+01
   3.774  0.3387E+00  0.8715E+01
   3.784  0.3738E+00  0.8719E+01
   3.794  0.4053E+00  0.8723E+01
   3.804  0.4332E+00  0.8727E+01
   3.814  0.4575E+00  0.8731E+01
   3.824  0.4782E+00  0.8736E+01
   3.834  0.4952E+00  0.8741E+01
   3.844  0.5086E+00  0.8746E+01
   3.854  0.5183E+00  0.8751E+01
   3.864  0.5244E+00  0.8756E+01
   3.874  0.5278E+00  0.8762E+01
   3.884  0.5446E+00  0.8767E+01
   3.894  0.5138E+00  0.8772E+01
   3.904  0.4585E+00  0.8777E+01
   3.914  0.4619E+00  0.8782E+01
   3.924  0.4641E+00  0.8786E+01
   3.934  0.4646E+00  0.8791E+01
   3.944  0.4651E+00  0.8796E+01
   3.954  0.4657E+00  0.8800E+01
   3.964  0.4662E+00  0.8805E+01
   3.974  0.4668E+00  0.8810E+01
   3.984  0.4673E+00  0.8814E+01
   3.994  0.4678E+00  0.8819E+01
   4.004  0.4683E+00  0.8824E+01
   4.014  0.4689E+00  0.8828E+01
   4.024  0.4693E+00  0.8833E+01
   4.034  0.4707E+00  0.8838E+01
   4.044  0.4722E+00  0.8842E+01
   4.054  0.4738E+00  0.8847E+01
   4.064  0.4753E+00  0.8852E+01
   4.074  0.4764E+00  0.8857E+01
   4.084  0.4766E+00  0.8861E+01
   4.094  0.4772E+00  0.8866E+01
   4.104  0.4778E+00  0.8871E+01
   4.114  0.4784E+00  0.8876E+01
   4.124  0.4789E+00  0.8881E+01
   4.134  0.4795E+00  0.8885E+01
   4.144  0.4801E+00  0.8890E+01
   4.154  0.4806E+00  0.8895E+01
   4.164  0.4812E+00  0.8900E+01
   4.174  0.4819E+00  0.8905E+01
   4.184  0.4827E+00  0.8909E+01
   4.194  0.4799E+00  0.8914E+01
   4.204  0.4759E+00  0.8919E+01
   4.214  0.4721E+00  0.8924E+01
   4.224  0.4686E+00  0.8928E+01
   4.234  0.4653E+00  0.8933E+01
   4.244  0.4623E+00  0.8938E+01
   4.254  0.4596E+00  0.8942E+01
   4.264  0.4570E+00  0.8947E+01
   4.274  0.4548E+00  0.8951E+01
   4.284  0.4528E+00  0.8956E+01
   4.294  0.4510E+00  0.8960E+01
   4.304  0.4495E+00  0.8965E+01
   4.314  0.4485E+00  0.8969E+01
   4.324  0.4472E+00  0.8974E+01
   4.334  0.4478E+00  0.8978E+01
   4.344  0.4502E+00  0.8983E+01
   4.354  0.4374E+00  0.8987E+01
   4.364  0.4385E+00  0.8992E+01
   4.374  0.4413E+00  0.8996E+01
   4.384  0.4453E+00  0.9001E+01
   4.394  0.4461E+00  0.9005E+01
   4.404  0.4461E+00  0.9009E+01
   4.414  0.4462E+00  0.9014E+01
   4.424  0.4463E+00  0.9018E+01
   4.434  0.4464E+00  0.9023E+01
   4.444  0.4465E+00  0.9027E+01
   4.454  0.4466E+00  0.9032E+01
   4.464  0.4467E+00  0.9036E+01
   4.474  0.4468E+00  0.9041E+01
   4.484  0.4469E+00  0.9045E+01
   4.494  0.4471E+00  0.9050E+01
   4.504  0.4472E+00  0.9054E+01
   4.514  0.4473E+00  0.9059E+01
   4.524  0.4474E+00  0.9063E+01
   4.534  0.4476E+00  0.9068E+01
   4.544  0.4477E+00  0.9072E+01
   4.554  0.4478E+00  0.9077E+01
   4.564  0.4480E+00  0.9081E+01
   4.574  0.4481E+00  0.9085E+01
   4.584  0.4482E+00  0.9090E+01
   4.594  0.4484E+00  0.9094E+01
   4.604  0.4485E+00  0.9099E+01
   4.614  0.4487E+00  0.9103E+01
   4.624  0.4488E+00  0.9108E+01
   4.634  0.4490E+00  0.9112E+01
   4.644  0.4492E+00  0.9117E+01
   4.654  0.4493E+00  0.9121E+01
   4.664  0.4495E+00  0.9126E+01
   4.674  0.4497E+00  0.9130E+01
   4.684  0.4499E+00  0.9135E+01
   4.694  0.4500E+00  0.9139E+01
   4.704  0.4502E+00  0.9144E+01
   4.714  0.4504E+00  0.9148E+01
   4.724  0.4506E+00  0.9153E+01
   4.734  0.4508E+00  0.9157E+01
   4.744  0.4509E+00  0.9162E+01
   4.754  0.4451E+00  0.9166E+01
   4.764  0.4372E+00  0.9171E+01
   4.774  0.4367E+00  0.9175E+01
   4.784  0.4362E+00  0.9180E+01
   4.794  0.4357E+00  0.9184E+01
   4.804  0.4352E+00  0.9188E+01
   4.814  0.4348E+00  0.9193E+01
   4.824  0.4343E+00  0.9197E+01
   4.834  0.4339E+00  0.9201E+01
   4.844  0.4334E+00  0.9206E+01
   4.854  0.4342E+00  0.9210E+01
   4.864  0.4349E+00  0.9214E+01
   4.874  0.4347E+00  0.9219E+01
   4.884  0.4332E+00  0.9223E+01
   4.894  0.4314E+00  0.9227E+01
   4.904  0.4298E+00  0.9232E+01
   4.914  0.4290E+00  0.9236E+01
   4.924  0.4287E+00  0.9240E+01
   4.934  0.4283E+00  0.9244E+01
   4.944  0.4279E+00  0.9249E+01
   4.954  0.4275E+00  0.9253E+01
   4.964  0.4272E+00  0.9257E+01
   4.974  0.4268E+00  0.9262E+01
   4.984  0.4265E+00  0.9266E+01
   4.994  0.4261E+00  0.9270E+01
   5.004  0.4258E+00  0.9274E+01
   5.014  0.4255E+00  0.9279E+01
   5.024  0.4252E+00  0.9283E+01
   5.034  0.4248E+00  0.9287E+01
   5.044  0.4243E+00  0.9291E+01
   5.054  0.4216E+00  0.9296E+01
   5.064  0.4194E+00  0.9300E+01
   5.074  0.4176E+00  0.9304E+01
   5.084  0.4172E+00  0.9308E+01
   5.094  0.4171E+00  0.9312E+01
   5.104  0.4170E+00  0.9317E+01
   5.114  0.4168E+00  0.9321E+01
   5.124  0.4166E+00  0.9325E+01
   5.134  0.4165E+00  0.9329E+01
   5.144  0.4164E+00  0.9333E+01
   5.154  0.4163E+00  0.9337E+01
   5.164  0.4162E+00  0.9342E+01
   5.174  0.4161E+00  0.9346E+01
   5.184  0.4160E+00  0.9350E+01
   5.194  0.4159E+00  0.9354E+01
   5.204  0.4159E+00  0.9358E+01
   5.214  0.4159E+00  0.9362E+01
   5.224  0.4158E+00  0.9366E+01
   5.234  0.4158E+00  0.9371E+01
   5.244  0.4158E+00  0.9375E+01
   5.254  0.4158E+00  0.9379E+01
   5.264  0.4159E+00  0.9383E+01
   5.274  0.4159E+00  0.9387E+01
   5.284  0.4160E+00  0.9391E+01
   5.294  0.4160E+00  0.9396E+01
   5.304  0.4161E+00  0.9400E+01
   5.314  0.4162E+00  0.9404E+01
   5.324  0.4163E+00  0.9408E+01
   5.334  0.4164E+00  0.9412E+01
   5.344  0.4166E+00  0.9416E+01
   5.354  0.4167E+00  0.9421E+01
   5.364  0.4169E+00  0.9425E+01
   5.374  0.4170E+00  0.9429E+01
   5.384  0.4172E+00  0.9433E+01
   5.394  0.4174E+00  0.9437E+01
   5.404  0.4176E+00  0.9441E+01
   5.414  0.4178E+00  0.9446E+01
   5.424  0.4181E+00  0.9450E+01
   5.434  0.4183E+00  0.9454E+01
   5.444  0.4186E+00  0.9458E+01
   5.454  0.4188E+00  0.9462E+01
   5.464  0.4187E+00  0.9467E+01
   5.474  0.4180E+00  0.9471E+01
   5.484  0.4068E+00  0.9475E+01
   5.494  0.3963E+00  0.9479E+01
   5.504  0.3896E+00  0.9483E+01
   5.514  0.3887E+00  0.9487E+01
   5.524  0.3878E+00  0.9491E+01
   5.534  0.3867E+00  0.9494E+01
   5.544  0.3858E+00  0.9498E+01
   5.554  0.3844E+00  0.9502E+01
   5.564  0.3813E+00  0.9506E+01
   5.574  0.3785E+00  0.9510E+01
   5.584  0.3757E+00  0.9514E+01
   5.594  0.3746E+00  0.9517E+01
   5.604  0.3745E+00  0.9521E+01
   5.614  0.3705E+00  0.9525E+01
   5.624  0.3688E+00  0.9528E+01
   5.634  0.3719E+00  0.9532E+01
   5.644  0.3703E+00  0.9536E+01
   5.654  0.3687E+00  0.9540E+01
   5.664  0.3676E+00  0.9543E+01
   5.674  0.3683E+00  0.9547E+01
   5.684  0.3691E+00  0.9551E+01
   5.694  0.3698E+00  0.9554E+01
   5.704  0.3708E+00  0.9558E+01
   5.714  0.3726E+00  0.9562E+01
   5.724  0.3743E+00  0.9565E+01
   5.734  0.3761E+00  0.9569E+01
   5.744  0.3779E+00  0.9573E+01
   5.754  0.3797E+00  0.9577E+01
   5.764  0.3815E+00  0.9581E+01
   5.774  0.3834E+00  0.9584E+01
   5.784  0.3853E+00  0.9588E+01
   5.794  0.3873E+00  0.9592E+01
   5.804  0.3893E+00  0.9596E+01
   5.814  0.3914E+00  0.9600E+01
   5.824  0.3931E+00  0.9604E+01
   5.834  0.3943E+00  0.9608E+01
   5.844  0.3956E+00  0.9612E+01
   5.854  0.3985E+00  0.9616E+01
   5.864  0.3994E+00  0.9620E+01
   5.874  0.3991E+00  0.9624E+01
   5.884  0.3990E+00  0.9628E+01
   5.894  0.3998E+00  0.9632E+01
   5.904  0.4017E+00  0.9636E+01
   5.914  0.4047E+00  0.9640E+01
   5.924  0.4089E+00  0.9644E+01
   5.934  0.4131E+00  0.9648E+01
   5.944  0.4171E+00  0.9652E+01
   5.954  0.4210E+00  0.9656E+01
   5.964  0.4247E+00  0.9660E+01
   5.974  0.4283E+00  0.9665E+01
   5.984  0.4318E+00  0.9669E+01
   5.994  0.4352E+00  0.9673E+01
   6.004  0.4386E+00  0.9678E+01
   6.014  0.4421E+00  0.9682E+01
   6.024  0.4461E+00  0.9687E+01
   6.034  0.4507E+00  0.9691E+01
   6.044  0.4560E+00  0.9696E+01
   6.054  0.4619E+00  0.9700E+01
   6.064  0.4676E+00  0.9705E+01
   6.074  0.4727E+00  0.9709E+01
   6.084  0.4776E+00  0.9714E+01
   6.094  0.4836E+00  0.9719E+01
   6.104  0.4913E+00  0.9724E+01
   6.114  0.5004E+00  0.9729E+01
   6.124  0.5102E+00  0.9734E+01
   6.134  0.5206E+00  0.9739E+01
   6.144  0.5300E+00  0.9744E+01
   6.154  0.5364E+00  0.9750E+01
   6.164  0.5398E+00  0.9755E+01
   6.174  0.5404E+00  0.9760E+01
   6.184  0.5404E+00  0.9766E+01
   6.194  0.5404E+00  0.9771E+01
   6.204  0.5404E+00  0.9777E+01
   6.214  0.5405E+00  0.9782E+01
   6.224  0.5406E+00  0.9787E+01
   6.234  0.5407E+00  0.9793E+01
   6.244  0.5409E+00  0.9798E+01
   6.254  0.5410E+00  0.9804E+01
   6.264  0.5410E+00  0.9809E+01
   6.274  0.5408E+00  0.9814E+01
   6.284  0.5407E+00  0.9820E+01
   6.294  0.5405E+00  0.9825E+01
   6.304  0.5404E+00  0.9831E+01
   6.314  0.5404E+00  0.9836E+01
   6.324  0.5403E+00  0.9842E+01
   6.334  0.5403E+00  0.9847E+01
   6.344  0.5402E+00  0.9852E+01
   6.354  0.5402E+00  0.9858E+01
   6.364  0.5403E+00  0.9863E+01
   6.374  0.5403E+00  0.9869E+01
   6.384  0.5404E+00  0.9874E+01
   6.394  0.5404E+00  0.9879E+01
   6.404  0.5405E+00  0.9885E+01
   6.414  0.5407E+00  0.9890E+01
   6.424  0.5408E+00  0.9896E+01
   6.434  0.5410E+00  0.9901E+01
   6.444  0.5412E+00  0.9906E+01
   6.454  0.5414E+00  0.9912E+01
   6.464  0.5416E+00  0.9917E+01
   6.474  0.5418E+00  0.9923E+01
   6.484  0.5421E+00  0.9928E+01
   6.494  0.5424E+00  0.9933E+01
   6.504  0.5427E+00  0.9939E+01
   6.514  0.5430E+00  0.9944E+01
   6.524  0.5277E+00  0.9950E+01
   6.534  0.4081E+00  0.9955E+01
   6.544  0.3617E+00  0.9958E+01
   6.554  0.3510E+00  0.9962E+01
   6.564  0.3403E+00  0.9965E+01
   6.574  0.3275E+00  0.9969E+01
   6.584  0.3099E+00  0.9972E+01
   6.594  0.2917E+00  0.9975E+01
   6.604  0.2742E+00  0.9978E+01
   6.614  0.2577E+00  0.9980E+01
   6.624  0.2415E+00  0.9983E+01
   6.634  0.2270E+00  0.9985E+01
   6.644  0.2123E+00  0.9987E+01
   6.654  0.1970E+00  0.9989E+01
   6.664  0.1811E+00  0.9991E+01
   6.674  0.1652E+00  0.9993E+01
   6.684  0.1490E+00  0.9995E+01
   6.694  0.1320E+00  0.9996E+01
   6.704  0.1160E+00  0.9997E+01
   6.714  0.1012E+00  0.9998E+01
   6.724  0.8799E-01  0.9999E+01
   6.734  0.8687E-01  0.1000E+02
   6.744  0.8781E-01  0.1000E+02
   6.754  0.8895E-01  0.1000E+02
   6.764  0.9054E-01  0.1000E+02
   6.774  0.9606E-01  0.1000E+02
   6.784  0.1030E+00  0.1000E+02
   6.794  0.1104E+00  0.1001E+02
   6.804  0.1188E+00  0.1001E+02
   6.814  0.1282E+00  0.1001E+02
   6.824  0.1377E+00  0.1001E+02
   6.834  0.1472E+00  0.1001E+02
   6.844  0.1567E+00  0.1001E+02
   6.854  0.1662E+00  0.1001E+02
   6.864  0.1756E+00  0.1002E+02
   6.874  0.1850E+00  0.1002E+02
   6.884  0.1943E+00  0.1002E+02
   6.894  0.2036E+00  0.1002E+02
   6.904  0.2127E+00  0.1002E+02
   6.914  0.2218E+00  0.1003E+02
   6.924  0.2309E+00  0.1003E+02
   6.934  0.2398E+00  0.1003E+02
   6.944  0.2487E+00  0.1003E+02
   6.954  0.2576E+00  0.1004E+02
   6.964  0.2664E+00  0.1004E+02
   6.974  0.2752E+00  0.1004E+02
   6.984  0.2840E+00  0.1004E+02
   6.994  0.2927E+00  0.1005E+02
   7.004  0.3015E+00  0.1005E+02
   7.014  0.3101E+00  0.1005E+02
   7.024  0.3187E+00  0.1006E+02
   7.034  0.3272E+00  0.1006E+02
   7.044  0.3356E+00  0.1006E+02
   7.054  0.3439E+00  0.1007E+02
   7.064  0.3546E+00  0.1007E+02
   7.074  0.3668E+00  0.1007E+02
   7.084  0.3811E+00  0.1008E+02
   7.094  0.4026E+00  0.1008E+02
   7.104  0.4624E+00  0.1008E+02
   7.114  0.5178E+00  0.1009E+02
   7.124  0.5688E+00  0.1009E+02
   7.134  0.6135E+00  0.1010E+02
   7.144  0.6498E+00  0.1011E+02
   7.154  0.6818E+00  0.1011E+02
   7.164  0.7096E+00  0.1012E+02
   7.174  0.7341E+00  0.1013E+02
   7.184  0.8837E+00  0.1014E+02
   7.194  0.9943E+00  0.1015E+02
   7.204  0.1033E+01  0.1016E+02
   7.214  0.1034E+01  0.1017E+02
   7.224  0.9844E+00  0.1018E+02
   7.234  0.9038E+00  0.1019E+02
   7.244  0.8841E+00  0.1019E+02
   7.254  0.8659E+00  0.1020E+02
   7.264  0.8496E+00  0.1021E+02
   7.274  0.8341E+00  0.1022E+02
   7.284  0.8191E+00  0.1023E+02
   7.294  0.8047E+00  0.1024E+02
   7.304  0.7909E+00  0.1024E+02
   7.314  0.7782E+00  0.1025E+02
   7.324  0.7673E+00  0.1026E+02
   7.334  0.7579E+00  0.1027E+02
   7.344  0.7501E+00  0.1028E+02
   7.354  0.7444E+00  0.1028E+02
   7.364  0.7405E+00  0.1029E+02
   7.374  0.7368E+00  0.1030E+02
   7.384  0.7330E+00  0.1030E+02
   7.394  0.7293E+00  0.1031E+02
   7.404  0.7255E+00  0.1032E+02
   7.414  0.7217E+00  0.1033E+02
   7.424  0.7180E+00  0.1033E+02
   7.434  0.7142E+00  0.1034E+02
   7.444  0.7104E+00  0.1035E+02
   7.454  0.7066E+00  0.1036E+02
   7.464  0.7028E+00  0.1036E+02
   7.474  0.6989E+00  0.1037E+02
   7.484  0.6951E+00  0.1038E+02
   7.494  0.6905E+00  0.1038E+02
   7.504  0.6850E+00  0.1039E+02
   7.514  0.6603E+00  0.1040E+02
   7.524  0.6553E+00  0.1040E+02
   7.534  0.6526E+00  0.1041E+02
   7.544  0.6503E+00  0.1042E+02
   7.554  0.6484E+00  0.1042E+02
   7.564  0.6469E+00  0.1043E+02
   7.574  0.6460E+00  0.1044E+02
   7.584  0.6459E+00  0.1044E+02
   7.594  0.6396E+00  0.1045E+02
   7.604  0.6305E+00  0.1046E+02
   7.614  0.6227E+00  0.1046E+02
   7.624  0.6169E+00  0.1047E+02
   7.634  0.6115E+00  0.1047E+02
   7.644  0.5956E+00  0.1048E+02
   7.654  0.5867E+00  0.1049E+02
   7.664  0.5780E+00  0.1049E+02
   7.674  0.5737E+00  0.1050E+02
   7.684  0.5720E+00  0.1050E+02
   7.694  0.5710E+00  0.1051E+02
   7.704  0.5695E+00  0.1051E+02
   7.714  0.5671E+00  0.1052E+02
   7.724  0.5693E+00  0.1053E+02
   7.734  0.5752E+00  0.1053E+02
   7.744  0.5812E+00  0.1054E+02
   7.754  0.5866E+00  0.1054E+02
   7.764  0.5898E+00  0.1055E+02
   7.774  0.5919E+00  0.1055E+02
   7.784  0.5940E+00  0.1056E+02
   7.794  0.5962E+00  0.1057E+02
   7.804  0.5985E+00  0.1057E+02
   7.814  0.6008E+00  0.1058E+02
   7.824  0.6032E+00  0.1058E+02
   7.834  0.6056E+00  0.1059E+02
   7.844  0.6082E+00  0.1060E+02
   7.854  0.6107E+00  0.1060E+02
   7.864  0.6134E+00  0.1061E+02
   7.874  0.6161E+00  0.1062E+02
   7.884  0.6188E+00  0.1062E+02
   7.894  0.6216E+00  0.1063E+02
   7.904  0.6245E+00  0.1063E+02
   7.914  0.6274E+00  0.1064E+02
   7.924  0.6304E+00  0.1065E+02
   7.934  0.6335E+00  0.1065E+02
   7.944  0.6366E+00  0.1066E+02
   7.954  0.6398E+00  0.1067E+02
   7.964  0.6431E+00  0.1067E+02
   7.974  0.6464E+00  0.1068E+02
   7.984  0.6497E+00  0.1068E+02
   7.994  0.6532E+00  0.1069E+02
   8.004  0.6566E+00  0.1070E+02
   8.014  0.6602E+00  0.1070E+02
   8.024  0.6640E+00  0.1071E+02
   8.034  0.6633E+00  0.1072E+02
   8.044  0.6311E+00  0.1072E+02
   8.054  0.5714E+00  0.1073E+02
   8.064  0.5802E+00  0.1074E+02
   8.074  0.6097E+00  0.1074E+02
   8.084  0.6062E+00  0.1075E+02
   8.094  0.6048E+00  0.1075E+02
   8.104  0.6095E+00  0.1076E+02
   8.114  0.6138E+00  0.1077E+02
   8.124  0.6180E+00  0.1077E+02
   8.134  0.6231E+00  0.1078E+02
   8.144  0.6307E+00  0.1078E+02
   8.154  0.6385E+00  0.1079E+02
   8.164  0.6464E+00  0.1080E+02
   8.174  0.6544E+00  0.1080E+02
   8.184  0.6625E+00  0.1081E+02
   8.194  0.6662E+00  0.1082E+02
   8.204  0.6688E+00  0.1082E+02
   8.214  0.6723E+00  0.1083E+02
   8.224  0.6768E+00  0.1084E+02
   8.234  0.6815E+00  0.1084E+02
   8.244  0.6907E+00  0.1085E+02
   8.254  0.7110E+00  0.1086E+02
   8.264  0.7345E+00  0.1087E+02
   8.274  0.7579E+00  0.1087E+02
   8.284  0.7816E+00  0.1088E+02
   8.294  0.8095E+00  0.1089E+02
   8.304  0.9926E+00  0.1090E+02
   8.314  0.1008E+01  0.1091E+02
   8.324  0.1025E+01  0.1092E+02
   8.334  0.1045E+01  0.1093E+02
   8.344  0.1070E+01  0.1094E+02
   8.354  0.1092E+01  0.1095E+02
   8.364  0.1116E+01  0.1096E+02
   8.374  0.1141E+01  0.1097E+02
   8.384  0.1164E+01  0.1098E+02
   8.394  0.1170E+01  0.1100E+02
   8.404  0.1178E+01  0.1101E+02
   8.414  0.1192E+01  0.1102E+02
   8.424  0.1213E+01  0.1103E+02
   8.434  0.1242E+01  0.1104E+02
   8.444  0.1258E+01  0.1106E+02
   8.454  0.1231E+01  0.1107E+02
   8.464  0.1130E+01  0.1108E+02
   8.474  0.1097E+01  0.1109E+02
   8.484  0.1056E+01  0.1110E+02
   8.494  0.1009E+01  0.1111E+02
   8.504  0.9632E+00  0.1112E+02
   8.514  0.9257E+00  0.1113E+02
   8.524  0.8983E+00  0.1114E+02
   8.534  0.8761E+00  0.1115E+02
   8.544  0.8551E+00  0.1116E+02
   8.554  0.8354E+00  0.1117E+02
   8.564  0.8171E+00  0.1117E+02
   8.574  0.8001E+00  0.1118E+02
   8.584  0.7964E+00  0.1119E+02
   8.594  0.8080E+00  0.1120E+02
   8.604  0.8186E+00  0.1121E+02
   8.614  0.8301E+00  0.1121E+02
   8.624  0.8451E+00  0.1122E+02
   8.634  0.8611E+00  0.1123E+02
   8.644  0.8753E+00  0.1124E+02
   8.654  0.8877E+00  0.1125E+02
   8.664  0.8987E+00  0.1126E+02
   8.674  0.9080E+00  0.1127E+02
   8.684  0.9155E+00  0.1128E+02
   8.694  0.9216E+00  0.1129E+02
   8.704  0.9270E+00  0.1129E+02
   8.714  0.9347E+00  0.1130E+02
   8.724  0.9500E+00  0.1131E+02
   8.734  0.9660E+00  0.1132E+02
   8.744  0.9797E+00  0.1133E+02
   8.754  0.9913E+00  0.1134E+02
   8.764  0.9951E+00  0.1135E+02
   8.774  0.9897E+00  0.1136E+02
   8.784  0.9874E+00  0.1137E+02
   8.794  0.9896E+00  0.1138E+02
   8.804  0.1006E+01  0.1139E+02
   8.814  0.1024E+01  0.1140E+02
   8.824  0.1065E+01  0.1141E+02
   8.834  0.1111E+01  0.1142E+02
   8.844  0.9819E+00  0.1143E+02
   8.854  0.9945E+00  0.1144E+02
   8.864  0.1063E+01  0.1145E+02
   8.874  0.1130E+01  0.1147E+02
   8.884  0.1197E+01  0.1148E+02
   8.894  0.1446E+01  0.1149E+02
   8.904  0.1857E+01  0.1151E+02
   8.914  0.1940E+01  0.1153E+02
   8.924  0.1926E+01  0.1155E+02
   8.934  0.1909E+01  0.1156E+02
   8.944  0.1844E+01  0.1158E+02
   8.954  0.1773E+01  0.1160E+02
   8.964  0.1703E+01  0.1162E+02
   8.974  0.1638E+01  0.1164E+02
   8.984  0.1579E+01  0.1165E+02
   8.994  0.1526E+01  0.1167E+02
   9.004  0.1473E+01  0.1168E+02
   9.014  0.1413E+01  0.1170E+02
   9.024  0.1363E+01  0.1171E+02
   9.034  0.1345E+01  0.1172E+02
   9.044  0.1309E+01  0.1174E+02
   9.054  0.1271E+01  0.1175E+02
   9.064  0.1233E+01  0.1176E+02
   9.074  0.1196E+01  0.1177E+02
   9.084  0.1161E+01  0.1179E+02
   9.094  0.1130E+01  0.1180E+02
   9.104  0.1102E+01  0.1181E+02
   9.114  0.1083E+01  0.1182E+02
   9.124  0.1078E+01  0.1183E+02
   9.134  0.1076E+01  0.1184E+02
   9.144  0.1076E+01  0.1185E+02
   9.154  0.1078E+01  0.1186E+02
   9.164  0.1081E+01  0.1187E+02
   9.174  0.1083E+01  0.1188E+02
   9.184  0.1087E+01  0.1190E+02
   9.194  0.2866E+01  0.1191E+02
   9.204  0.2390E+01  0.1194E+02
   9.214  0.1460E+01  0.1196E+02
   9.224  0.1943E+01  0.1198E+02
   9.234  0.2271E+01  0.1200E+02
   9.244  0.2209E+01  0.1202E+02
   9.254  0.2136E+01  0.1204E+02
   9.264  0.2077E+01  0.1206E+02
   9.274  0.2186E+01  0.1208E+02
   9.284  0.2263E+01  0.1211E+02
   9.294  0.2383E+01  0.1213E+02
   9.304  0.2361E+01  0.1215E+02
   9.314  0.2289E+01  0.1218E+02
   9.324  0.2172E+01  0.1220E+02
   9.334  0.2077E+01  0.1222E+02
   9.344  0.2014E+01  0.1224E+02
   9.354  0.1980E+01  0.1226E+02
   9.364  0.1866E+01  0.1228E+02
   9.374  0.1682E+01  0.1230E+02
   9.384  0.1679E+01  0.1232E+02
   9.394  0.1669E+01  0.1233E+02
   9.404  0.1643E+01  0.1235E+02
   9.414  0.1611E+01  0.1236E+02
   9.424  0.1575E+01  0.1238E+02
   9.434  0.1541E+01  0.1240E+02
   9.444  0.1533E+01  0.1241E+02
   9.454  0.1530E+01  0.1243E+02
   9.464  0.1522E+01  0.1244E+02
   9.474  0.1513E+01  0.1246E+02
   9.484  0.1504E+01  0.1247E+02
   9.494  0.1497E+01  0.1249E+02
   9.504  0.1494E+01  0.1250E+02
   9.514  0.1493E+01  0.1252E+02
   9.524  0.1493E+01  0.1253E+02
   9.534  0.1496E+01  0.1255E+02
   9.544  0.1500E+01  0.1256E+02
   9.554  0.1471E+01  0.1258E+02
   9.564  0.1312E+01  0.1259E+02
   9.574  0.1180E+01  0.1260E+02
   9.584  0.1088E+01  0.1261E+02
   9.594  0.1068E+01  0.1263E+02
   9.604  0.1130E+01  0.1264E+02
   9.614  0.1138E+01  0.1265E+02
   9.624  0.1136E+01  0.1266E+02
   9.634  0.1133E+01  0.1267E+02
   9.644  0.1137E+01  0.1268E+02
   9.654  0.1146E+01  0.1269E+02
   9.664  0.1142E+01  0.1270E+02
   9.674  0.1153E+01  0.1272E+02
   9.684  0.1171E+01  0.1273E+02
   9.694  0.1191E+01  0.1274E+02
   9.704  0.1203E+01  0.1275E+02
   9.714  0.1210E+01  0.1276E+02
   9.724  0.1216E+01  0.1278E+02
   9.734  0.1222E+01  0.1279E+02
   9.744  0.1229E+01  0.1280E+02
   9.754  0.1235E+01  0.1281E+02
   9.764  0.1242E+01  0.1282E+02
   9.774  0.1249E+01  0.1284E+02
   9.784  0.1257E+01  0.1285E+02
   9.794  0.1264E+01  0.1286E+02
   9.804  0.1272E+01  0.1288E+02
   9.814  0.1280E+01  0.1289E+02
   9.824  0.1285E+01  0.1290E+02
   9.834  0.1288E+01  0.1291E+02
   9.844  0.1291E+01  0.1293E+02
   9.854  0.1297E+01  0.1294E+02
   9.864  0.1306E+01  0.1295E+02
   9.874  0.1315E+01  0.1297E+02
   9.884  0.1324E+01  0.1298E+02
   9.894  0.1333E+01  0.1299E+02
   9.904  0.1342E+01  0.1301E+02
   9.914  0.1352E+01  0.1302E+02
   9.924  0.1342E+01  0.1303E+02
   9.934  0.1325E+01  0.1305E+02
   9.944  0.1314E+01  0.1306E+02
   9.954  0.1350E+01  0.1307E+02
   9.964  0.1400E+01  0.1309E+02
   9.974  0.1456E+01  0.1310E+02
   9.984  0.1508E+01  0.1312E+02
   9.994  0.1557E+01  0.1313E+02
  10.004  0.1620E+01  0.1315E+02
  10.014  0.1708E+01  0.1316E+02
  10.024  0.1820E+01  0.1318E+02
  10.034  0.1956E+01  0.1320E+02
  10.044  0.2116E+01  0.1322E+02
  10.054  0.2176E+01  0.1324E+02
  10.064  0.2021E+01  0.1326E+02
  10.074  0.1729E+01  0.1328E+02
  10.084  0.1431E+01  0.1330E+02
  10.094  0.1512E+01  0.1331E+02
  10.104  0.1787E+01  0.1333E+02
  10.114  0.1800E+01  0.1335E+02
  10.124  0.1658E+01  0.1336E+02
  10.134  0.1416E+01  0.1338E+02
  10.144  0.1082E+01  0.1339E+02
  10.154  0.9495E+00  0.1340E+02
  10.164  0.8817E+00  0.1341E+02
  10.174  0.8808E+00  0.1342E+02
  10.184  0.8801E+00  0.1343E+02
  10.194  0.8797E+00  0.1344E+02
  10.204  0.8793E+00  0.1345E+02
  10.214  0.8814E+00  0.1345E+02
  10.224  0.8849E+00  0.1346E+02
  10.234  0.8838E+00  0.1347E+02
  10.244  0.8827E+00  0.1348E+02
  10.254  0.8816E+00  0.1349E+02
  10.264  0.8807E+00  0.1350E+02
  10.274  0.8800E+00  0.1351E+02
  10.284  0.8794E+00  0.1352E+02
  10.294  0.8791E+00  0.1352E+02
  10.304  0.8790E+00  0.1353E+02
  10.314  0.8790E+00  0.1354E+02
  10.324  0.8793E+00  0.1355E+02
  10.334  0.8798E+00  0.1356E+02
  10.344  0.8812E+00  0.1357E+02
  10.354  0.8832E+00  0.1358E+02
  10.364  0.8837E+00  0.1359E+02
  10.374  0.8859E+00  0.1360E+02
  10.384  0.8882E+00  0.1360E+02
  10.394  0.8922E+00  0.1361E+02
  10.404  0.8962E+00  0.1362E+02
  10.414  0.8979E+00  0.1363E+02
  10.424  0.8975E+00  0.1364E+02
  10.434  0.8991E+00  0.1365E+02
  10.444  0.8983E+00  0.1366E+02
  10.454  0.8962E+00  0.1367E+02
  10.464  0.8956E+00  0.1368E+02
  10.474  0.8908E+00  0.1368E+02
  10.484  0.8676E+00  0.1369E+02
  10.494  0.8269E+00  0.1370E+02
  10.504  0.7900E+00  0.1371E+02
  10.514  0.7737E+00  0.1372E+02
  10.524  0.7720E+00  0.1373E+02
  10.534  0.7687E+00  0.1373E+02
  10.544  0.7642E+00  0.1374E+02
  10.554  0.7596E+00  0.1375E+02
  10.564  0.7549E+00  0.1376E+02
  10.574  0.7500E+00  0.1376E+02
  10.584  0.7454E+00  0.1377E+02
  10.594  0.7391E+00  0.1378E+02
  10.604  0.7317E+00  0.1379E+02
  10.614  0.7273E+00  0.1379E+02
  10.624  0.7299E+00  0.1380E+02
  10.634  0.7341E+00  0.1381E+02
  10.644  0.7352E+00  0.1382E+02
  10.654  0.7347E+00  0.1382E+02
  10.664  0.7345E+00  0.1383E+02
  10.674  0.7346E+00  0.1384E+02
  10.684  0.7348E+00  0.1384E+02
  10.694  0.7351E+00  0.1385E+02
  10.704  0.7363E+00  0.1386E+02
  10.714  0.7382E+00  0.1387E+02
  10.724  0.7383E+00  0.1387E+02
  10.734  0.7357E+00  0.1388E+02
  10.744  0.7356E+00  0.1389E+02
  10.754  0.7378E+00  0.1390E+02
  10.764  0.7413E+00  0.1390E+02
  10.774  0.7416E+00  0.1391E+02
  10.784  0.7419E+00  0.1392E+02
  10.794  0.7422E+00  0.1393E+02
  10.804  0.7428E+00  0.1393E+02
  10.814  0.7429E+00  0.1394E+02
  10.824  0.7427E+00  0.1395E+02
  10.834  0.7428E+00  0.1396E+02
  10.844  0.7441E+00  0.1396E+02
  10.854  0.7467E+00  0.1397E+02
  10.864  0.7506E+00  0.1398E+02
  10.874  0.7557E+00  0.1399E+02
  10.884  0.7610E+00  0.1399E+02
  10.894  0.7657E+00  0.1400E+02
  10.904  0.7700E+00  0.1401E+02
  10.914  0.7737E+00  0.1402E+02
  10.924  0.7769E+00  0.1402E+02
  10.934  0.7795E+00  0.1403E+02
  10.944  0.7817E+00  0.1404E+02
  10.954  0.7837E+00  0.1405E+02
  10.964  0.7854E+00  0.1406E+02
  10.974  0.7865E+00  0.1406E+02
  10.984  0.7871E+00  0.1407E+02
  10.994  0.7872E+00  0.1408E+02
  11.004  0.7867E+00  0.1409E+02
  11.014  0.7862E+00  0.1409E+02
  11.024  0.7856E+00  0.1410E+02
  11.034  0.7850E+00  0.1411E+02
  11.044  0.7845E+00  0.1412E+02
  11.054  0.7839E+00  0.1413E+02
  11.064  0.7834E+00  0.1413E+02
  11.074  0.7829E+00  0.1414E+02
  11.084  0.7823E+00  0.1415E+02
  11.094  0.7817E+00  0.1416E+02
  11.104  0.7812E+00  0.1417E+02
  11.114  0.7804E+00  0.1417E+02
  11.124  0.7790E+00  0.1418E+02
  11.134  0.7763E+00  0.1419E+02
  11.144  0.7731E+00  0.1420E+02
  11.154  0.7704E+00  0.1420E+02
  11.164  0.7680E+00  0.1421E+02
  11.174  0.7657E+00  0.1422E+02
  11.184  0.7654E+00  0.1423E+02
  11.194  0.7694E+00  0.1423E+02
  11.204  0.7787E+00  0.1424E+02
  11.214  0.7954E+00  0.1425E+02
  11.224  0.8138E+00  0.1426E+02
  11.234  0.8319E+00  0.1427E+02
  11.244  0.8445E+00  0.1427E+02
  11.254  0.8545E+00  0.1428E+02
  11.264  0.8602E+00  0.1429E+02
  11.274  0.8618E+00  0.1430E+02
  11.284  0.8601E+00  0.1431E+02
  11.294  0.8563E+00  0.1432E+02
  11.304  0.8529E+00  0.1433E+02
  11.314  0.8495E+00  0.1433E+02
  11.324  0.8462E+00  0.1434E+02
  11.334  0.8428E+00  0.1435E+02
  11.344  0.8394E+00  0.1436E+02
  11.354  0.8360E+00  0.1437E+02
  11.364  0.8325E+00  0.1438E+02
  11.374  0.8291E+00  0.1439E+02
  11.384  0.8256E+00  0.1439E+02
  11.394  0.8221E+00  0.1440E+02
  11.404  0.8186E+00  0.1441E+02
  11.414  0.8152E+00  0.1442E+02
  11.424  0.8117E+00  0.1443E+02
  11.434  0.8082E+00  0.1443E+02
  11.444  0.8048E+00  0.1444E+02
  11.454  0.8013E+00  0.1445E+02
  11.464  0.7978E+00  0.1446E+02
  11.474  0.7943E+00  0.1447E+02
  11.484  0.7909E+00  0.1447E+02
  11.494  0.7874E+00  0.1448E+02
  11.504  0.7839E+00  0.1449E+02
  11.514  0.7804E+00  0.1450E+02
  11.524  0.7769E+00  0.1451E+02
  11.534  0.7735E+00  0.1451E+02
  11.544  0.7700E+00  0.1452E+02
  11.554  0.7665E+00  0.1453E+02
  11.564  0.7630E+00  0.1454E+02
  11.574  0.7595E+00  0.1454E+02
  11.584  0.7570E+00  0.1455E+02
  11.594  0.7571E+00  0.1456E+02
  11.604  0.7573E+00  0.1457E+02
  11.614  0.7631E+00  0.1457E+02
  11.624  0.7681E+00  0.1458E+02
  11.634  0.7754E+00  0.1459E+02
  11.644  0.7872E+00  0.1460E+02
  11.654  0.8005E+00  0.1461E+02
  11.664  0.8131E+00  0.1461E+02
  11.674  0.8265E+00  0.1462E+02
  11.684  0.8456E+00  0.1463E+02
  11.694  0.8736E+00  0.1464E+02
  11.704  0.9088E+00  0.1465E+02
  11.714  0.9429E+00  0.1466E+02
  11.724  0.9755E+00  0.1467E+02
  11.734  0.1014E+01  0.1468E+02
  11.744  0.1053E+01  0.1469E+02
  11.754  0.1090E+01  0.1470E+02
  11.764  0.1130E+01  0.1471E+02
  11.774  0.1165E+01  0.1472E+02
  11.784  0.1197E+01  0.1473E+02
  11.794  0.1228E+01  0.1474E+02
  11.804  0.1259E+01  0.1476E+02
  11.814  0.1291E+01  0.1477E+02
  11.824  0.1331E+01  0.1478E+02
  11.834  0.1377E+01  0.1480E+02
  11.844  0.1411E+01  0.1481E+02
  11.854  0.1445E+01  0.1482E+02
  11.864  0.1475E+01  0.1484E+02
  11.874  0.1251E+01  0.1485E+02
  11.884  0.1233E+01  0.1486E+02
  11.894  0.1254E+01  0.1488E+02
  11.904  0.1328E+01  0.1489E+02
  11.914  0.1504E+01  0.1490E+02
  11.924  0.1550E+01  0.1492E+02
  11.934  0.1412E+01  0.1493E+02
  11.944  0.1300E+01  0.1495E+02
  11.954  0.1212E+01  0.1496E+02
  11.964  0.1124E+01  0.1497E+02
  11.974  0.1066E+01  0.1498E+02
  11.984  0.1004E+01  0.1499E+02
  11.994  0.9549E+00  0.1500E+02
  12.004  0.9223E+00  0.1501E+02
  12.014  0.8934E+00  0.1502E+02
  12.024  0.8718E+00  0.1503E+02
  12.034  0.8576E+00  0.1504E+02
  12.044  0.8528E+00  0.1505E+02
  12.054  0.8510E+00  0.1506E+02
  12.064  0.8492E+00  0.1506E+02
  12.074  0.8474E+00  0.1507E+02
  12.084  0.8458E+00  0.1508E+02
  12.094  0.8442E+00  0.1509E+02
  12.104  0.8429E+00  0.1510E+02
  12.114  0.8417E+00  0.1511E+02
  12.124  0.8406E+00  0.1512E+02
  12.134  0.8398E+00  0.1512E+02
  12.144  0.8391E+00  0.1513E+02
  12.154  0.8386E+00  0.1514E+02
  12.164  0.8383E+00  0.1515E+02
  12.174  0.8381E+00  0.1516E+02
  12.184  0.8381E+00  0.1517E+02
  12.194  0.8387E+00  0.1517E+02
  12.204  0.8393E+00  0.1518E+02
  12.214  0.8373E+00  0.1519E+02
  12.224  0.8326E+00  0.1520E+02
  12.234  0.8280E+00  0.1521E+02
  12.244  0.8224E+00  0.1522E+02
  12.254  0.8197E+00  0.1522E+02
  12.264  0.8266E+00  0.1523E+02
  12.274  0.8366E+00  0.1524E+02
  12.284  0.8482E+00  0.1525E+02
  12.294  0.7992E+00  0.1526E+02
  12.304  0.7577E+00  0.1527E+02
  12.314  0.7465E+00  0.1527E+02
  12.324  0.7633E+00  0.1528E+02
  12.334  0.8154E+00  0.1529E+02
  12.344  0.9023E+00  0.1530E+02
  12.354  0.1021E+01  0.1531E+02
  12.364  0.1018E+01  0.1532E+02
  12.374  0.1003E+01  0.1533E+02
  12.384  0.9875E+00  0.1534E+02
  12.394  0.9901E+00  0.1535E+02
  12.404  0.1009E+01  0.1536E+02
  12.414  0.1023E+01  0.1537E+02
  12.424  0.1030E+01  0.1538E+02
  12.434  0.1032E+01  0.1539E+02
  12.444  0.1028E+01  0.1540E+02
  12.454  0.1018E+01  0.1541E+02
  12.464  0.1002E+01  0.1542E+02
  12.474  0.9804E+00  0.1543E+02
  12.484  0.9522E+00  0.1544E+02
  12.494  0.9140E+00  0.1545E+02
  12.504  0.8644E+00  0.1546E+02
  12.514  0.8483E+00  0.1546E+02
  12.524  0.8439E+00  0.1547E+02
  12.534  0.8410E+00  0.1548E+02
  12.544  0.8398E+00  0.1549E+02
  12.554  0.8393E+00  0.1550E+02
  12.564  0.8390E+00  0.1551E+02
  12.574  0.8388E+00  0.1551E+02
  12.584  0.8386E+00  0.1552E+02
  12.594  0.8385E+00  0.1553E+02
  12.604  0.8384E+00  0.1554E+02
  12.614  0.8383E+00  0.1555E+02
  12.624  0.8382E+00  0.1556E+02
  12.634  0.8382E+00  0.1556E+02
  12.644  0.8382E+00  0.1557E+02
  12.654  0.8382E+00  0.1558E+02
  12.664  0.8382E+00  0.1559E+02
  12.674  0.8382E+00  0.1560E+02
  12.684  0.8382E+00  0.1561E+02
  12.694  0.8383E+00  0.1562E+02
  12.704  0.8384E+00  0.1562E+02
  12.714  0.8379E+00  0.1563E+02
  12.724  0.8357E+00  0.1564E+02
  12.734  0.8311E+00  0.1565E+02
  12.744  0.8242E+00  0.1566E+02
  12.754  0.8160E+00  0.1567E+02
  12.764  0.8069E+00  0.1567E+02
  12.774  0.7955E+00  0.1568E+02
  12.784  0.7817E+00  0.1569E+02
  12.794  0.7658E+00  0.1570E+02
  12.804  0.7483E+00  0.1570E+02
  12.814  0.7311E+00  0.1571E+02
  12.824  0.7135E+00  0.1572E+02
  12.834  0.6894E+00  0.1573E+02
  12.844  0.6530E+00  0.1573E+02
  12.854  0.6156E+00  0.1574E+02
  12.864  0.5832E+00  0.1575E+02
  12.874  0.5561E+00  0.1575E+02
  12.884  0.5317E+00  0.1576E+02
  12.894  0.5082E+00  0.1576E+02
  12.904  0.4865E+00  0.1577E+02
  12.914  0.4686E+00  0.1577E+02
  12.924  0.4545E+00  0.1578E+02
  12.934  0.4431E+00  0.1578E+02
  12.944  0.4336E+00  0.1578E+02
  12.954  0.4247E+00  0.1579E+02
  12.964  0.4159E+00  0.1579E+02
  12.974  0.4071E+00  0.1580E+02
  12.984  0.3984E+00  0.1580E+02
  12.994  0.3898E+00  0.1581E+02
  13.004  0.3810E+00  0.1581E+02
  13.014  0.3721E+00  0.1581E+02
  13.024  0.3631E+00  0.1582E+02
  13.034  0.3539E+00  0.1582E+02
  13.044  0.3446E+00  0.1582E+02
  13.054  0.3359E+00  0.1583E+02
  13.064  0.3278E+00  0.1583E+02
  13.074  0.3203E+00  0.1583E+02
  13.084  0.3130E+00  0.1584E+02
  13.094  0.3035E+00  0.1584E+02
  13.104  0.2914E+00  0.1584E+02
  13.114  0.2755E+00  0.1585E+02
  13.124  0.2561E+00  0.1585E+02
  13.134  0.2367E+00  0.1585E+02
  13.144  0.2197E+00  0.1585E+02
  13.154  0.2057E+00  0.1586E+02
  13.164  0.1950E+00  0.1586E+02
  13.174  0.1873E+00  0.1586E+02
  13.184  0.1828E+00  0.1586E+02
  13.194  0.1809E+00  0.1586E+02
  13.204  0.1800E+00  0.1586E+02
  13.214  0.1790E+00  0.1587E+02
  13.224  0.1781E+00  0.1587E+02
  13.234  0.1772E+00  0.1587E+02
  13.244  0.1763E+00  0.1587E+02
  13.254  0.1754E+00  0.1587E+02
  13.264  0.1745E+00  0.1588E+02
  13.274  0.1735E+00  0.1588E+02
  13.284  0.1726E+00  0.1588E+02
  13.294  0.1717E+00  0.1588E+02
  13.304  0.1708E+00  0.1588E+02
  13.314  0.1699E+00  0.1588E+02
  13.324  0.1690E+00  0.1589E+02
  13.334  0.1680E+00  0.1589E+02
  13.344  0.1671E+00  0.1589E+02
  13.354  0.1662E+00  0.1589E+02
  13.364  0.1653E+00  0.1589E+02
  13.374  0.1644E+00  0.1589E+02
  13.384  0.1635E+00  0.1590E+02
  13.394  0.1626E+00  0.1590E+02
  13.404  0.1617E+00  0.1590E+02
  13.414  0.1608E+00  0.1590E+02
  13.424  0.1598E+00  0.1590E+02
  13.434  0.1589E+00  0.1590E+02
  13.444  0.1554E+00  0.1591E+02
  13.454  0.1052E+00  0.1591E+02
  13.464  0.1621E+00  0.1591E+02
  13.474  0.2762E+00  0.1591E+02
  13.484  0.2643E+00  0.1591E+02
  13.494  0.2491E+00  0.1592E+02
  13.504  0.2332E+00  0.1592E+02
  13.514  0.2415E+00  0.1592E+02
  13.524  0.3267E+00  0.1592E+02
  13.534  0.4449E+00  0.1593E+02
  13.544  0.5326E+00  0.1593E+02
  13.554  0.5894E+00  0.1594E+02
  13.564  0.6146E+00  0.1594E+02
  13.574  0.6083E+00  0.1595E+02
  13.584  0.6209E+00  0.1596E+02
  13.594  0.6929E+00  0.1596E+02
  13.604  0.8486E+00  0.1597E+02
  13.614  0.8425E+00  0.1598E+02
